/////////////////////////////////////////////////////////////////////////////////
/// Profile Data Ascii Dump (XRD)                                             ///
/////////////////////////////////////////////////////////////////////////////////

  Group     : Swayze
  Data      : GDS18
  File Name : GDS18.RAW

# Profile Datafile
          comment             = Mordenite 
          date & time         = 08-03-24 07:48:58 

# Measurement Condition
    X-ray tube
          target              = Cu 
          voltage             = 40.0 (kV)
          current             = 30.0 (mA)
    Slits
          divergence slit     = 2.00000 (deg) 
          scatter slit        = 2.00000 (deg) 
          receiving slit      = 0.15000 (mm)  
    Scanning
          drive axis          = Theta-2Theta 
          scan range          =    4.000 -   65.000 
          scan mode           = Continuous Scan 
          scan speed          =   2.0000 (deg/min) 
          sampling pitch      =   0.0200 (deg) 
          preset time         =   0.60 (sec) 

# Data      [ Total No. = 3051 ]
  <2Theta>   <   I   >
     4.0000       180
     4.0200       170
     4.0400       204
     4.0600       160
     4.0800       184
     4.1000       180
     4.1200       168
     4.1400       190
     4.1600       196
     4.1800       166
     4.2000       186
     4.2200       190
     4.2400       184
     4.2600       182
     4.2800       162
     4.3000       178
     4.3200       178
     4.3400       182
     4.3600       174
     4.3800       186
     4.4000       144
     4.4200       154
     4.4400       168
     4.4600       190
     4.4800       160
     4.5000       158
     4.5200       156
     4.5400       158
     4.5600       176
     4.5800       160
     4.6000       178
     4.6200       154
     4.6400       176
     4.6600       176
     4.6800       184
     4.7000       148
     4.7200       164
     4.7400       188
     4.7600       174
     4.7800       164
     4.8000       172
     4.8200       156
     4.8400       170
     4.8600       180
     4.8800       174
     4.9000       168
     4.9200       172
     4.9400       176
     4.9600       162
     4.9800       168
     5.0000       146
     5.0200       132
     5.0400       146
     5.0600       150
     5.0800       196
     5.1000       156
     5.1200       166
     5.1400       158
     5.1600       164
     5.1800       182
     5.2000       160
     5.2200       146
     5.2400       164
     5.2600       176
     5.2800       174
     5.3000       134
     5.3200       176
     5.3400       168
     5.3600       174
     5.3800       152
     5.4000       168
     5.4200       156
     5.4400       172
     5.4600       170
     5.4800       136
     5.5000       182
     5.5200       162
     5.5400       138
     5.5600       174
     5.5800       132
     5.6000       190
     5.6200       134
     5.6400       164
     5.6600       166
     5.6800       166
     5.7000       206
     5.7200       180
     5.7400       172
     5.7600       162
     5.7800       168
     5.8000       192
     5.8200       188
     5.8400       162
     5.8600       198
     5.8800       160
     5.9000       180
     5.9200       180
     5.9400       170
     5.9600       178
     5.9800       200
     6.0000       196
     6.0200       188
     6.0400       182
     6.0600       206
     6.0800       224
     6.1000       214
     6.1200       182
     6.1400       220
     6.1600       220
     6.1800       232
     6.2000       222
     6.2200       268
     6.2400       234
     6.2600       260
     6.2800       304
     6.3000       314
     6.3200       354
     6.3400       372
     6.3600       408
     6.3800       494
     6.4000       576
     6.4200       538
     6.4400       500
     6.4600       436
     6.4800       332
     6.5000       234
     6.5200       208
     6.5400       170
     6.5600       154
     6.5800       146
     6.6000       172
     6.6200       138
     6.6400       142
     6.6600       140
     6.6800       160
     6.7000       158
     6.7200       136
     6.7400       130
     6.7600       152
     6.7800       146
     6.8000       140
     6.8200       152
     6.8400       128
     6.8600       124
     6.8800       130
     6.9000       116
     6.9200       110
     6.9400       122
     6.9600       112
     6.9800       126
     7.0000       130
     7.0200       146
     7.0400       138
     7.0600       122
     7.0800       138
     7.1000       118
     7.1200       132
     7.1400       134
     7.1600       138
     7.1800       114
     7.2000       132
     7.2200       126
     7.2400       114
     7.2600       120
     7.2800       114
     7.3000       118
     7.3200       110
     7.3400       134
     7.3600       120
     7.3800       102
     7.4000       126
     7.4200       138
     7.4400       126
     7.4600       108
     7.4800       114
     7.5000       112
     7.5200       104
     7.5400       114
     7.5600       120
     7.5800       126
     7.6000       102
     7.6200       116
     7.6400       116
     7.6600       118
     7.6800       130
     7.7000       130
     7.7200       110
     7.7400       110
     7.7600       138
     7.7800       116
     7.8000       120
     7.8200       136
     7.8400       118
     7.8600        92
     7.8800       120
     7.9000       132
     7.9200       106
     7.9400       104
     7.9600       128
     7.9800       102
     8.0000       124
     8.0200       104
     8.0400       110
     8.0600       126
     8.0800       108
     8.1000       110
     8.1200       120
     8.1400       144
     8.1600       118
     8.1800       132
     8.2000       126
     8.2200       126
     8.2400       116
     8.2600       168
     8.2800       114
     8.3000       116
     8.3200       130
     8.3400       144
     8.3600       148
     8.3800       130
     8.4000       140
     8.4200       152
     8.4400       134
     8.4600       158
     8.4800       166
     8.5000       202
     8.5200       210
     8.5400       216
     8.5600       212
     8.5800       190
     8.6000       152
     8.6200       146
     8.6400       118
     8.6600       134
     8.6800       128
     8.7000       112
     8.7200       140
     8.7400       128
     8.7600       114
     8.7800       110
     8.8000       134
     8.8200       108
     8.8400       122
     8.8600       126
     8.8800       104
     8.9000       106
     8.9200       146
     8.9400       116
     8.9600       110
     8.9800       116
     9.0000       118
     9.0200       124
     9.0400       142
     9.0600       134
     9.0800       124
     9.1000       142
     9.1200       144
     9.1400       162
     9.1600       154
     9.1800       142
     9.2000       144
     9.2200       164
     9.2400       170
     9.2600       182
     9.2800       168
     9.3000       202
     9.3200       234
     9.3400       202
     9.3600       218
     9.3800       230
     9.4000       282
     9.4200       308
     9.4400       300
     9.4600       330
     9.4800       374
     9.5000       386
     9.5200       368
     9.5400       454
     9.5600       464
     9.5800       564
     9.6000       706
     9.6200       888
     9.6400      1042
     9.6600      1192
     9.6800      1258
     9.7000      1078
     9.7200       830
     9.7400       610
     9.7600       380
     9.7800       262
     9.8000       198
     9.8200       168
     9.8400       138
     9.8600       132
     9.8800       134
     9.9000       128
     9.9200       126
     9.9400       132
     9.9600       114
     9.9800       108
    10.0000       108
    10.0200       110
    10.0400       122
    10.0600       130
    10.0800       108
    10.1000       104
    10.1200       120
    10.1400        96
    10.1600       106
    10.1800        88
    10.2000       108
    10.2200       102
    10.2400       120
    10.2600       108
    10.2800       110
    10.3000       106
    10.3200        94
    10.3400       104
    10.3600        96
    10.3800       110
    10.4000       112
    10.4200       108
    10.4400        82
    10.4600        98
    10.4800        90
    10.5000        98
    10.5200        80
    10.5400       100
    10.5600        96
    10.5800       112
    10.6000       108
    10.6200        98
    10.6400       108
    10.6600        82
    10.6800        88
    10.7000       102
    10.7200       100
    10.7400        96
    10.7600       106
    10.7800       100
    10.8000        86
    10.8200        94
    10.8400       102
    10.8600       100
    10.8800        96
    10.9000        90
    10.9200       100
    10.9400       100
    10.9600        98
    10.9800        94
    11.0000        94
    11.0200       112
    11.0400        90
    11.0600        90
    11.0800        90
    11.1000        96
    11.1200        90
    11.1400        94
    11.1600        86
    11.1800        86
    11.2000        90
    11.2200       100
    11.2400        94
    11.2600        78
    11.2800        86
    11.3000        88
    11.3200       100
    11.3400        72
    11.3600        98
    11.3800        78
    11.4000        82
    11.4200        98
    11.4400        84
    11.4600        78
    11.4800        98
    11.5000       106
    11.5200        72
    11.5400        92
    11.5600        92
    11.5800        84
    11.6000       108
    11.6200        82
    11.6400       100
    11.6600        92
    11.6800        86
    11.7000        84
    11.7200        86
    11.7400       104
    11.7600        82
    11.7800        80
    11.8000        96
    11.8200        90
    11.8400        88
    11.8600        80
    11.8800        68
    11.9000        78
    11.9200        86
    11.9400        76
    11.9600        72
    11.9800        88
    12.0000        80
    12.0200        78
    12.0400        84
    12.0600       116
    12.0800        86
    12.1000        86
    12.1200        74
    12.1400        82
    12.1600       106
    12.1800        78
    12.2000        88
    12.2200        72
    12.2400       100
    12.2600       108
    12.2800        94
    12.3000        84
    12.3200        86
    12.3400        86
    12.3600        74
    12.3800        70
    12.4000        84
    12.4200        78
    12.4400        98
    12.4600        82
    12.4800        84
    12.5000        90
    12.5200        86
    12.5400        84
    12.5600        98
    12.5800        94
    12.6000       100
    12.6200        92
    12.6400       108
    12.6600        92
    12.6800       102
    12.7000       104
    12.7200       104
    12.7400        96
    12.7600       100
    12.7800       104
    12.8000       108
    12.8200       132
    12.8400       132
    12.8600       120
    12.8800       126
    12.9000       150
    12.9200       144
    12.9400       150
    12.9600       148
    12.9800       142
    13.0000       174
    13.0200       156
    13.0400       138
    13.0600       132
    13.0800       138
    13.1000       132
    13.1200       146
    13.1400       156
    13.1600       164
    13.1800       166
    13.2000       178
    13.2200       192
    13.2400       218
    13.2600       222
    13.2800       240
    13.3000       268
    13.3200       256
    13.3400       266
    13.3600       248
    13.3800       256
    13.4000       212
    13.4200       190
    13.4400       166
    13.4600       168
    13.4800       154
    13.5000       166
    13.5200       146
    13.5400       152
    13.5600       188
    13.5800       194
    13.6000       210
    13.6200       224
    13.6400       288
    13.6600       264
    13.6800       310
    13.7000       364
    13.7200       476
    13.7400       554
    13.7600       544
    13.7800       512
    13.8000       492
    13.8200       388
    13.8400       284
    13.8600       182
    13.8800       148
    13.9000       128
    13.9200       114
    13.9400        80
    13.9600        82
    13.9800        98
    14.0000        96
    14.0200        88
    14.0400        98
    14.0600       104
    14.0800        94
    14.1000       106
    14.1200       102
    14.1400        82
    14.1600        90
    14.1800        82
    14.2000        86
    14.2200        96
    14.2400        98
    14.2600        80
    14.2800        88
    14.3000        90
    14.3200        70
    14.3400        94
    14.3600        92
    14.3800       104
    14.4000       118
    14.4200       128
    14.4400       110
    14.4600       130
    14.4800       124
    14.5000       108
    14.5200       134
    14.5400        96
    14.5600       116
    14.5800        98
    14.6000        86
    14.6200       104
    14.6400        86
    14.6600        66
    14.6800        92
    14.7000        66
    14.7200        90
    14.7400        68
    14.7600        80
    14.7800       106
    14.8000       104
    14.8200        92
    14.8400        82
    14.8600       102
    14.8800       122
    14.9000       114
    14.9200       114
    14.9400       146
    14.9600       128
    14.9800       138
    15.0000       130
    15.0200       138
    15.0400       176
    15.0600       204
    15.0800       200
    15.1000       254
    15.1200       306
    15.1400       340
    15.1600       366
    15.1800       438
    15.2000       480
    15.2200       448
    15.2400       364
    15.2600       290
    15.2800       194
    15.3000       168
    15.3200       116
    15.3400       124
    15.3600       106
    15.3800        84
    15.4000        84
    15.4200        68
    15.4400        70
    15.4600        64
    15.4800        68
    15.5000        66
    15.5200        72
    15.5400        72
    15.5600        76
    15.5800        70
    15.6000        80
    15.6200        62
    15.6400        58
    15.6600        74
    15.6800        72
    15.7000        72
    15.7200        58
    15.7400        66
    15.7600        70
    15.7800        68
    15.8000        60
    15.8200        62
    15.8400        70
    15.8600        64
    15.8800        72
    15.9000        72
    15.9200        68
    15.9400        78
    15.9600        50
    15.9800        74
    16.0000        62
    16.0200        66
    16.0400        68
    16.0600        70
    16.0800        62
    16.1000        62
    16.1200        68
    16.1400        62
    16.1600        70
    16.1800        76
    16.2000        78
    16.2200        90
    16.2400        70
    16.2600        96
    16.2800        68
    16.3000        70
    16.3200        72
    16.3400        64
    16.3600        70
    16.3800        76
    16.4000        62
    16.4200        56
    16.4400        68
    16.4600        56
    16.4800        66
    16.5000        62
    16.5200        68
    16.5400        74
    16.5600        76
    16.5800        70
    16.6000        76
    16.6200        74
    16.6400        82
    16.6600        44
    16.6800        54
    16.7000        60
    16.7200        70
    16.7400        62
    16.7600        46
    16.7800        62
    16.8000        60
    16.8200        52
    16.8400        62
    16.8600        58
    16.8800        62
    16.9000        54
    16.9200        58
    16.9400        58
    16.9600        60
    16.9800        58
    17.0000        60
    17.0200        72
    17.0400        60
    17.0600        74
    17.0800        70
    17.1000        68
    17.1200        74
    17.1400        62
    17.1600        86
    17.1800        84
    17.2000        76
    17.2200        64
    17.2400        76
    17.2600        66
    17.2800        80
    17.3000        88
    17.3200        68
    17.3400        74
    17.3600        78
    17.3800        74
    17.4000        68
    17.4200        76
    17.4400        82
    17.4600        86
    17.4800        80
    17.5000       106
    17.5200        80
    17.5400        80
    17.5600        78
    17.5800        68
    17.6000        66
    17.6200        80
    17.6400        58
    17.6600        66
    17.6800        60
    17.7000        56
    17.7200        82
    17.7400        68
    17.7600        68
    17.7800        66
    17.8000        70
    17.8200        72
    17.8400        80
    17.8600        58
    17.8800        60
    17.9000        72
    17.9200        72
    17.9400        80
    17.9600        84
    17.9800        76
    18.0000        82
    18.0200        84
    18.0400        98
    18.0600        96
    18.0800        82
    18.1000        98
    18.1200        80
    18.1400        88
    18.1600        86
    18.1800        70
    18.2000        72
    18.2200        70
    18.2400        64
    18.2600        64
    18.2800        56
    18.3000        72
    18.3200        56
    18.3400        76
    18.3600        80
    18.3800        86
    18.4000        54
    18.4200        74
    18.4400        80
    18.4600        66
    18.4800        72
    18.5000        68
    18.5200        62
    18.5400        68
    18.5600        68
    18.5800        70
    18.6000        70
    18.6200        68
    18.6400        76
    18.6600        68
    18.6800        50
    18.7000        70
    18.7200        64
    18.7400        76
    18.7600        92
    18.7800        84
    18.8000        66
    18.8200        70
    18.8400        70
    18.8600        74
    18.8800        76
    18.9000        80
    18.9200        78
    18.9400        62
    18.9600        90
    18.9800        78
    19.0000        92
    19.0200        78
    19.0400       104
    19.0600        96
    19.0800       118
    19.1000       102
    19.1200       100
    19.1400       132
    19.1600       156
    19.1800       166
    19.2000       170
    19.2200       182
    19.2400       186
    19.2600       158
    19.2800       226
    19.3000       196
    19.3200       206
    19.3400       288
    19.3600       350
    19.3800       394
    19.4000       486
    19.4200       558
    19.4400       628
    19.4600       746
    19.4800       848
    19.5000       914
    19.5200       928
    19.5400       916
    19.5600       848
    19.5800       680
    19.6000       562
    19.6200       466
    19.6400       314
    19.6600       236
    19.6800       180
    19.7000       148
    19.7200       144
    19.7400       136
    19.7600       146
    19.7800       112
    19.8000       126
    19.8200       134
    19.8400       118
    19.8600       130
    19.8800       108
    19.9000       102
    19.9200        82
    19.9400        94
    19.9600        76
    19.9800        88
    20.0000        90
    20.0200        76
    20.0400        80
    20.0600        78
    20.0800        64
    20.1000        86
    20.1200        80
    20.1400        60
    20.1600        82
    20.1800        58
    20.2000        84
    20.2200        56
    20.2400        46
    20.2600        64
    20.2800        66
    20.3000        56
    20.3200        72
    20.3400        70
    20.3600        60
    20.3800        74
