/////////////////////////////////////////////////////////////////////////////////
/// Profile Data Ascii Dump (XRD)                                             ///
/////////////////////////////////////////////////////////////////////////////////

  Group     : Swayze
  Data      : GDS184
  File Name : GDS184.RAW

# Profile Datafile
          comment             = Roscoelite 
          date & time         = 08-04-14 09:26:47 

# Measurement Condition
    X-ray tube
          target              = Cu 
          voltage             = 40.0 (kV)
          current             = 30.0 (mA)
    Slits
          divergence slit     = 2.00000 (deg) 
          scatter slit        = 2.00000 (deg) 
          receiving slit      = 0.15000 (mm)  
    Scanning
          drive axis          = Theta-2Theta 
          scan range          =    4.000 -   65.000 
          scan mode           = Continuous Scan 
          scan speed          =   2.0000 (deg/min) 
          sampling pitch      =   0.0200 (deg) 
          preset time         =   0.60 (sec) 

# Data      [ Total No. = 3051 ]
  <2Theta>   <   I   >
     4.0000       182
     4.0200       156
     4.0400       174
     4.0600       202
     4.0800       232
     4.1000       166
     4.1200       174
     4.1400       164
     4.1600       194
     4.1800       148
     4.2000       154
     4.2200       168
     4.2400       198
     4.2600       158
     4.2800       182
     4.3000       176
     4.3200       174
     4.3400       194
     4.3600       178
     4.3800       184
     4.4000       184
     4.4200       158
     4.4400       164
     4.4600       188
     4.4800       184
     4.5000       182
     4.5200       172
     4.5400       166
     4.5600       172
     4.5800       196
     4.6000       182
     4.6200       140
     4.6400       208
     4.6600       166
     4.6800       150
     4.7000       156
     4.7200       130
     4.7400       176
     4.7600       146
     4.7800       168
     4.8000       150
     4.8200       166
     4.8400       160
     4.8600       162
     4.8800       174
     4.9000       142
     4.9200       152
     4.9400       162
     4.9600       164
     4.9800       164
     5.0000       170
     5.0200       166
     5.0400       168
     5.0600       144
     5.0800       146
     5.1000       178
     5.1200       154
     5.1400       144
     5.1600       146
     5.1800       154
     5.2000       154
     5.2200       146
     5.2400       162
     5.2600       172
     5.2800       154
     5.3000       176
     5.3200       146
     5.3400       142
     5.3600       170
     5.3800       162
     5.4000       190
     5.4200       152
     5.4400       160
     5.4600       162
     5.4800       170
     5.5000       182
     5.5200       152
     5.5400       184
     5.5600       140
     5.5800       140
     5.6000       184
     5.6200       190
     5.6400       142
     5.6600       156
     5.6800       154
     5.7000       158
     5.7200       158
     5.7400       176
     5.7600       164
     5.7800       160
     5.8000       164
     5.8200       172
     5.8400       168
     5.8600       192
     5.8800       176
     5.9000       162
     5.9200       172
     5.9400       164
     5.9600       190
     5.9800       152
     6.0000       162
     6.0200       170
     6.0400       174
     6.0600       180
     6.0800       160
     6.1000       172
     6.1200       182
     6.1400       176
     6.1600       156
     6.1800       184
     6.2000       178
     6.2200       196
     6.2400       148
     6.2600       162
     6.2800       178
     6.3000       142
     6.3200       166
     6.3400       174
     6.3600       188
     6.3800       156
     6.4000       158
     6.4200       136
     6.4400       166
     6.4600       168
     6.4800       150
     6.5000       170
     6.5200       148
     6.5400       150
     6.5600       130
     6.5800       152
     6.6000       152
     6.6200       162
     6.6400       138
     6.6600       146
     6.6800       148
     6.7000       136
     6.7200       136
     6.7400       142
     6.7600       124
     6.7800       130
     6.8000       160
     6.8200       116
     6.8400       142
     6.8600       142
     6.8800       150
     6.9000       136
     6.9200       128
     6.9400       120
     6.9600       124
     6.9800       140
     7.0000       128
     7.0200       122
     7.0400       140
     7.0600       140
     7.0800       120
     7.1000       128
     7.1200       124
     7.1400       120
     7.1600       118
     7.1800       122
     7.2000       134
     7.2200       120
     7.2400       140
     7.2600       124
     7.2800       122
     7.3000       122
     7.3200       128
     7.3400       146
     7.3600       140
     7.3800       134
     7.4000       118
     7.4200       136
     7.4400       118
     7.4600       104
     7.4800       132
     7.5000        94
     7.5200       110
     7.5400       136
     7.5600       110
     7.5800        92
     7.6000       110
     7.6200       148
     7.6400       124
     7.6600       130
     7.6800       122
     7.7000       136
     7.7200       106
     7.7400       116
     7.7600       108
     7.7800       122
     7.8000       122
     7.8200       124
     7.8400       118
     7.8600       106
     7.8800       136
     7.9000       126
     7.9200       116
     7.9400       142
     7.9600       132
     7.9800       142
     8.0000       120
     8.0200       136
     8.0400       126
     8.0600       114
     8.0800       118
     8.1000       120
     8.1200       120
     8.1400       134
     8.1600       126
     8.1800       146
     8.2000       120
     8.2200       144
     8.2400       136
     8.2600       158
     8.2800       130
     8.3000       142
     8.3200       162
     8.3400       170
     8.3600       160
     8.3800       182
     8.4000       186
     8.4200       200
     8.4400       246
     8.4600       230
     8.4800       240
     8.5000       252
     8.5200       256
     8.5400       306
     8.5600       314
     8.5800       322
     8.6000       378
     8.6200       374
     8.6400       416
     8.6600       506
     8.6800       494
     8.7000       568
     8.7200       732
     8.7400       870
     8.7600      1034
     8.7800      1314
     8.8000      1580
     8.8200      2012
     8.8400      2308
     8.8600      2310
     8.8800      2034
     8.9000      1464
     8.9200       964
     8.9400       634
     8.9600       440
     8.9800       308
     9.0000       220
     9.0200       188
     9.0400       176
     9.0600       160
     9.0800       162
     9.1000       152
     9.1200       134
     9.1400       152
     9.1600       142
     9.1800       130
     9.2000       120
     9.2200       110
     9.2400       104
     9.2600       100
     9.2800       116
     9.3000       110
     9.3200       110
     9.3400       104
     9.3600       100
     9.3800       106
     9.4000       104
     9.4200       106
     9.4400       102
     9.4600       122
     9.4800       114
     9.5000       106
     9.5200        94
     9.5400       116
     9.5600       108
     9.5800       126
     9.6000       100
     9.6200       102
     9.6400        98
     9.6600        96
     9.6800       108
     9.7000       110
     9.7200       106
     9.7400       100
     9.7600       120
     9.7800        88
     9.8000       132
     9.8200       104
     9.8400       120
     9.8600       102
     9.8800       108
     9.9000        94
     9.9200       102
     9.9400       108
     9.9600        98
     9.9800        84
    10.0000       108
    10.0200       110
    10.0400       104
    10.0600       100
    10.0800        92
    10.1000       108
    10.1200        96
    10.1400        92
    10.1600       114
    10.1800        94
    10.2000        98
    10.2200        66
    10.2400        94
    10.2600        96
    10.2800       118
    10.3000       106
    10.3200        98
    10.3400       102
    10.3600       108
    10.3800        88
    10.4000        82
    10.4200        90
    10.4400       106
    10.4600        70
    10.4800        98
    10.5000       102
    10.5200        92
    10.5400       106
    10.5600        78
    10.5800        86
    10.6000        92
    10.6200       104
    10.6400       104
    10.6600       100
    10.6800        78
    10.7000        80
    10.7200        94
    10.7400        82
    10.7600        90
    10.7800        96
    10.8000        78
    10.8200       100
    10.8400        82
    10.8600        88
    10.8800        94
    10.9000        88
    10.9200        92
    10.9400        96
    10.9600        76
    10.9800        88
    11.0000        92
    11.0200       110
    11.0400        96
    11.0600        88
    11.0800        76
    11.1000        94
    11.1200        78
    11.1400        86
    11.1600        76
    11.1800        94
    11.2000        96
    11.2200        90
    11.2400        80
    11.2600        96
    11.2800        82
    11.3000        84
    11.3200        84
    11.3400        96
    11.3600        86
    11.3800        72
    11.4000       100
    11.4200        76
    11.4400        84
    11.4600        92
    11.4800        84
    11.5000       104
    11.5200        70
    11.5400        70
    11.5600        78
    11.5800        98
    11.6000        74
    11.6200        84
    11.6400        78
    11.6600        62
    11.6800        90
    11.7000        78
    11.7200        70
    11.7400        72
    11.7600        68
    11.7800        82
    11.8000        64
    11.8200        70
    11.8400        64
    11.8600        94
    11.8800        78
    11.9000        72
    11.9200        76
    11.9400        74
    11.9600        88
    11.9800        76
    12.0000        80
    12.0200        66
    12.0400        82
    12.0600        64
    12.0800        72
    12.1000        78
    12.1200        64
    12.1400        72
    12.1600        74
    12.1800        64
    12.2000        74
    12.2200        86
    12.2400        72
    12.2600        80
    12.2800        74
    12.3000        70
    12.3200        74
    12.3400        82
    12.3600        84
    12.3800        80
    12.4000        76
    12.4200        84
    12.4400        86
    12.4600        70
    12.4800        56
    12.5000        72
    12.5200        76
    12.5400        74
    12.5600        68
    12.5800        64
    12.6000        74
    12.6200        72
    12.6400        76
    12.6600        66
    12.6800        76
    12.7000        70
    12.7200        62
    12.7400        84
    12.7600        82
    12.7800        86
    12.8000        64
    12.8200        82
    12.8400        72
    12.8600        72
    12.8800        72
    12.9000        82
    12.9200        64
    12.9400        60
    12.9600        58
    12.9800        56
    13.0000        74
    13.0200        68
    13.0400        68
    13.0600        68
    13.0800        78
    13.1000        88
    13.1200        86
    13.1400        54
    13.1600        66
    13.1800        64
    13.2000        74
    13.2200        68
    13.2400        54
    13.2600        62
    13.2800        52
    13.3000        80
    13.3200        70
    13.3400        62
    13.3600        62
    13.3800        58
    13.4000        54
    13.4200        54
    13.4400        76
    13.4600        62
    13.4800        62
    13.5000        48
    13.5200        66
    13.5400        70
    13.5600        54
    13.5800        54
    13.6000        68
    13.6200        64
    13.6400        56
    13.6600        72
    13.6800        60
    13.7000        66
    13.7200        62
    13.7400        68
    13.7600        70
    13.7800        52
    13.8000        60
    13.8200        62
    13.8400        44
    13.8600        44
    13.8800        62
    13.9000        56
    13.9200        58
    13.9400        48
    13.9600        68
    13.9800        52
    14.0000        56
    14.0200        60
    14.0400        52
    14.0600        70
    14.0800        60
    14.1000        66
    14.1200        70
    14.1400        70
    14.1600        72
    14.1800        50
    14.2000        64
    14.2200        68
    14.2400        38
    14.2600        68
    14.2800        64
    14.3000        66
    14.3200        64
    14.3400        58
    14.3600        60
    14.3800        70
    14.4000        54
    14.4200        62
    14.4400        60
    14.4600        42
    14.4800        76
    14.5000        68
    14.5200        66
    14.5400        64
    14.5600        58
    14.5800        58
    14.6000        50
    14.6200        64
    14.6400        42
    14.6600        56
    14.6800        68
    14.7000        56
    14.7200        50
    14.7400        52
    14.7600        58
    14.7800        50
    14.8000        58
    14.8200        56
    14.8400        46
    14.8600        66
    14.8800        66
    14.9000        40
    14.9200        58
    14.9400        58
    14.9600        48
    14.9800        44
    15.0000        66
    15.0200        60
    15.0400        64
    15.0600        62
    15.0800        50
    15.1000        50
    15.1200        46
    15.1400        52
    15.1600        54
    15.1800        54
    15.2000        50
    15.2200        48
    15.2400        52
    15.2600        48
    15.2800        50
    15.3000        56
    15.3200        50
    15.3400        64
    15.3600        50
    15.3800        64
    15.4000        54
    15.4200        50
    15.4400        58
    15.4600        66
    15.4800        48
    15.5000        54
    15.5200        58
    15.5400        52
    15.5600        58
    15.5800        64
    15.6000        52
    15.6200        58
    15.6400        56
    15.6600        56
    15.6800        68
    15.7000        58
    15.7200        62
    15.7400        66
    15.7600        68
    15.7800        36
    15.8000        56
    15.8200        60
    15.8400        62
    15.8600        54
    15.8800        48
    15.9000        48
    15.9200        54
    15.9400        70
    15.9600        60
    15.9800        58
    16.0000        56
    16.0200        42
    16.0400        52
    16.0600        60
    16.0800        52
    16.1000        60
    16.1200        52
    16.1400        52
    16.1600        46
    16.1800        48
    16.2000        40
    16.2200        48
    16.2400        46
    16.2600        52
    16.2800        58
    16.3000        52
    16.3200        52
    16.3400        52
    16.3600        46
    16.3800        60
    16.4000        48
    16.4200        48
    16.4400        44
    16.4600        50
    16.4800        56
    16.5000        60
    16.5200        50
    16.5400        58
    16.5600        48
    16.5800        50
    16.6000        46
    16.6200        62
    16.6400        54
    16.6600        64
    16.6800        38
    16.7000        52
    16.7200        54
    16.7400        46
    16.7600        54
    16.7800        44
    16.8000        48
    16.8200        48
    16.8400        54
    16.8600        46
    16.8800        46
    16.9000        50
    16.9200        46
    16.9400        58
    16.9600        46
    16.9800        38
    17.0000        44
    17.0200        60
    17.0400        58
    17.0600        44
    17.0800        46
    17.1000        46
    17.1200        48
    17.1400        46
    17.1600        50
    17.1800        58
    17.2000        40
    17.2200        66
    17.2400        60
    17.2600        56
    17.2800        50
    17.3000        52
    17.3200        56
    17.3400        62
    17.3600        60
    17.3800        52
    17.4000        54
    17.4200        58
    17.4400        56
    17.4600        50
    17.4800        78
    17.5000        46
    17.5200        54
    17.5400        76
    17.5600        66
    17.5800        78
    17.6000        82
    17.6200        76
    17.6400        84
    17.6600       106
    17.6800       126
    17.7000       140
    17.7200       132
    17.7400       168
    17.7600       126
    17.7800       136
    17.8000        92
    17.8200        86
    17.8400        76
    17.8600        78
    17.8800        54
    17.9000        44
    17.9200        64
    17.9400        54
    17.9600        38
    17.9800        52
    18.0000        42
    18.0200        64
    18.0400        58
    18.0600        48
    18.0800        32
    18.1000        70
    18.1200        54
    18.1400        50
    18.1600        48
    18.1800        56
    18.2000        48
    18.2200        46
    18.2400        46
    18.2600        52
    18.2800        58
    18.3000        42
    18.3200        50
    18.3400        52
    18.3600        58
    18.3800        56
    18.4000        50
    18.4200        52
    18.4400        50
    18.4600        44
    18.4800        62
    18.5000        72
    18.5200        56
    18.5400        70
    18.5600        78
    18.5800        58
    18.6000        72
    18.6200        58
    18.6400        46
    18.6600        66
    18.6800        54
    18.7000        64
    18.7200        60
    18.7400        62
    18.7600        52
    18.7800        66
    18.8000        50
    18.8200        62
    18.8400        40
    18.8600        62
    18.8800        66
    18.9000        60
    18.9200        50
    18.9400        50
    18.9600        56
    18.9800        54
    19.0000        46
    19.0200        42
    19.0400        58
    19.0600        58
    19.0800        42
    19.1000        62
    19.1200        42
    19.1400        58
    19.1600        62
    19.1800        64
    19.2000        64
    19.2200        48
    19.2400        56
    19.2600        62
    19.2800        56
    19.3000        58
    19.3200        60
    19.3400        70
    19.3600        70
    19.3800        76
    19.4000        74
    19.4200        70
    19.4400        68
    19.4600        98
    19.4800        78
    19.5000        74
    19.5200        80
    19.5400        80
    19.5600        64
    19.5800        62
    19.6000        70
    19.6200        56
    19.6400        48
    19.6600        70
    19.6800        64
    19.7000        42
    19.7200        58
    19.7400        68
    19.7600        46
    19.7800        52
    19.8000        58
    19.8200        64
    19.8400        54
    19.8600        46
    19.8800        54
    19.9000        46
    19.9200        52
    19.9400        54
    19.9600        60
    19.9800        56
    20.0000        54
    20.0200        52
    20.0400        58
    20.0600        64
    20.0800        52
    20.1000        38
    20.1200        68
    20.1400        64
    20.1600        74
    20.1800        70
    20.2000        92
    20.2200        74
    20.2400        80
    20.2600        84
    20.2800        64
    20.3000        72
    20.3200        50
    20.3400        66
    20.3600        60
    20.3800        66
