/////////////////////////////////////////////////////////////////////////////////
/// Profile Data Ascii Dump (XRD)                                             ///
/////////////////////////////////////////////////////////////////////////////////

  Group     : Swayze
  Data      : GDS155
  File Name : GDS155.RAW

# Profile Datafile
          comment             = Clinochlore-ferrous 
          date & time         = 08-04-28 08:51:18 

# Measurement Condition
    X-ray tube
          target              = Cu 
          voltage             = 40.0 (kV)
          current             = 30.0 (mA)
    Slits
          divergence slit     = 2.00000 (deg) 
          scatter slit        = 2.00000 (deg) 
          receiving slit      = 0.15000 (mm)  
    Scanning
          drive axis          = Theta-2Theta 
          scan range          =    4.000 -   65.000 
          scan mode           = Continuous Scan 
          scan speed          =   2.0000 (deg/min) 
          sampling pitch      =   0.0200 (deg) 
          preset time         =   0.60 (sec) 

# Data      [ Total No. = 3051 ]
  <2Theta>   <   I   >
     4.0000       174
     4.0200       192
     4.0400       168
     4.0600       164
     4.0800       196
     4.1000       176
     4.1200       166
     4.1400       180
     4.1600       162
     4.1800       172
     4.2000       190
     4.2200       162
     4.2400       160
     4.2600       172
     4.2800       188
     4.3000       180
     4.3200       162
     4.3400       160
     4.3600       154
     4.3800       176
     4.4000       176
     4.4200       182
     4.4400       146
     4.4600       176
     4.4800       170
     4.5000       142
     4.5200       134
     4.5400       154
     4.5600       160
     4.5800       144
     4.6000       180
     4.6200       164
     4.6400       176
     4.6600       146
     4.6800       160
     4.7000       184
     4.7200       192
     4.7400       190
     4.7600       146
     4.7800       172
     4.8000       172
     4.8200       154
     4.8400       154
     4.8600       160
     4.8800       152
     4.9000       140
     4.9200       138
     4.9400       178
     4.9600       160
     4.9800       146
     5.0000       150
     5.0200       134
     5.0400       178
     5.0600       166
     5.0800       164
     5.1000       172
     5.1200       172
     5.1400       140
     5.1600       158
     5.1800       176
     5.2000       166
     5.2200       164
     5.2400       128
     5.2600       164
     5.2800       154
     5.3000       140
     5.3200       156
     5.3400       162
     5.3600       152
     5.3800       168
     5.4000       164
     5.4200       156
     5.4400       162
     5.4600       170
     5.4800       172
     5.5000       174
     5.5200       160
     5.5400       150
     5.5600       158
     5.5800       166
     5.6000       172
     5.6200       176
     5.6400       166
     5.6600       190
     5.6800       164
     5.7000       174
     5.7200       176
     5.7400       172
     5.7600       190
     5.7800       180
     5.8000       166
     5.8200       172
     5.8400       224
     5.8600       202
     5.8800       216
     5.9000       240
     5.9200       228
     5.9400       228
     5.9600       246
     5.9800       288
     6.0000       288
     6.0200       314
     6.0400       316
     6.0600       370
     6.0800       414
     6.1000       414
     6.1200       514
     6.1400       548
     6.1600       606
     6.1800       658
     6.2000       668
     6.2200       616
     6.2400       550
     6.2600       440
     6.2800       360
     6.3000       288
     6.3200       236
     6.3400       198
     6.3600       190
     6.3800       160
     6.4000       150
     6.4200       174
     6.4400       148
     6.4600       152
     6.4800       132
     6.5000       158
     6.5200       138
     6.5400       128
     6.5600       138
     6.5800       142
     6.6000       134
     6.6200       132
     6.6400       128
     6.6600       136
     6.6800       122
     6.7000       144
     6.7200       124
     6.7400       130
     6.7600       132
     6.7800       132
     6.8000       126
     6.8200       106
     6.8400       110
     6.8600       110
     6.8800       120
     6.9000       134
     6.9200       134
     6.9400       126
     6.9600       106
     6.9800       106
     7.0000       104
     7.0200       126
     7.0400       128
     7.0600       134
     7.0800       128
     7.1000       108
     7.1200       122
     7.1400       114
     7.1600       114
     7.1800       110
     7.2000       116
     7.2200       110
     7.2400       106
     7.2600       128
     7.2800       112
     7.3000        86
     7.3200       108
     7.3400        86
     7.3600       114
     7.3800       114
     7.4000       116
     7.4200       146
     7.4400       110
     7.4600       100
     7.4800       106
     7.5000        94
     7.5200       118
     7.5400        98
     7.5600       124
     7.5800       132
     7.6000       106
     7.6200       104
     7.6400       108
     7.6600       108
     7.6800       122
     7.7000       110
     7.7200       104
     7.7400       120
     7.7600       108
     7.7800       100
     7.8000       110
     7.8200        94
     7.8400       112
     7.8600       112
     7.8800       116
     7.9000        98
     7.9200       100
     7.9400       112
     7.9600       114
     7.9800       106
     8.0000       106
     8.0200       106
     8.0400       110
     8.0600        96
     8.0800       108
     8.1000       106
     8.1200        98
     8.1400       114
     8.1600       110
     8.1800       142
     8.2000       128
     8.2200       112
     8.2400       134
     8.2600       102
     8.2800       116
     8.3000       130
     8.3200       116
     8.3400       110
     8.3600       110
     8.3800       120
     8.4000       116
     8.4200        94
     8.4400       100
     8.4600       116
     8.4800        98
     8.5000       120
     8.5200       102
     8.5400       106
     8.5600       136
     8.5800       118
     8.6000       120
     8.6200       102
     8.6400       118
     8.6600        94
     8.6800       106
     8.7000       114
     8.7200        84
     8.7400       124
     8.7600       116
     8.7800       108
     8.8000       112
     8.8200       116
     8.8400       118
     8.8600       108
     8.8800       110
     8.9000       102
     8.9200       100
     8.9400       110
     8.9600       100
     8.9800       112
     9.0000        98
     9.0200       126
     9.0400       110
     9.0600       106
     9.0800       106
     9.1000       108
     9.1200       106
     9.1400       100
     9.1600       102
     9.1800       140
     9.2000       128
     9.2200       100
     9.2400       118
     9.2600       108
     9.2800       122
     9.3000       124
     9.3200       118
     9.3400       124
     9.3600       104
     9.3800        82
     9.4000       102
     9.4200       102
     9.4400       118
     9.4600        94
     9.4800       130
     9.5000       124
     9.5200       120
     9.5400       106
     9.5600       114
     9.5800       112
     9.6000        88
     9.6200       110
     9.6400        96
     9.6600       108
     9.6800       104
     9.7000        90
     9.7200        98
     9.7400       134
     9.7600        92
     9.7800       104
     9.8000       102
     9.8200       104
     9.8400       114
     9.8600        96
     9.8800       118
     9.9000       104
     9.9200       106
     9.9400       102
     9.9600       100
     9.9800        88
    10.0000       116
    10.0200       110
    10.0400        90
    10.0600       104
    10.0800       108
    10.1000       104
    10.1200       112
    10.1400       102
    10.1600       108
    10.1800        92
    10.2000       108
    10.2200        82
    10.2400        88
    10.2600       110
    10.2800        92
    10.3000       128
    10.3200       112
    10.3400        94
    10.3600        92
    10.3800       102
    10.4000        96
    10.4200       124
    10.4400        86
    10.4600        90
    10.4800        84
    10.5000        94
    10.5200       124
    10.5400        96
    10.5600       106
    10.5800       102
    10.6000        86
    10.6200        82
    10.6400        88
    10.6600        88
    10.6800        98
    10.7000        98
    10.7200        98
    10.7400       104
    10.7600        82
    10.7800       110
    10.8000       100
    10.8200       108
    10.8400        84
    10.8600        84
    10.8800        96
    10.9000        94
    10.9200       102
    10.9400       100
    10.9600        94
    10.9800       110
    11.0000       102
    11.0200       114
    11.0400       114
    11.0600        80
    11.0800        76
    11.1000        96
    11.1200       102
    11.1400       104
    11.1600       100
    11.1800       110
    11.2000       112
    11.2200       100
    11.2400       104
    11.2600        94
    11.2800        90
    11.3000        88
    11.3200        94
    11.3400        86
    11.3600        80
    11.3800        84
    11.4000       108
    11.4200        86
    11.4400        88
    11.4600        90
    11.4800       106
    11.5000        92
    11.5200       110
    11.5400        96
    11.5600        94
    11.5800       112
    11.6000        88
    11.6200        92
    11.6400        88
    11.6600        96
    11.6800       108
    11.7000       108
    11.7200        92
    11.7400       106
    11.7600        98
    11.7800       118
    11.8000       126
    11.8200       112
    11.8400       116
    11.8600       138
    11.8800       142
    11.9000       176
    11.9200       142
    11.9400       152
    11.9600       192
    11.9800       186
    12.0000       176
    12.0200       234
    12.0400       240
    12.0600       258
    12.0800       272
    12.1000       278
    12.1200       306
    12.1400       358
    12.1600       380
    12.1800       422
    12.2000       476
    12.2200       584
    12.2400       654
    12.2600       744
    12.2800       920
    12.3000      1124
    12.3200      1396
    12.3400      1528
    12.3600      1798
    12.3800      2146
    12.4000      2360
    12.4200      2644
    12.4400      2904
    12.4600      2844
    12.4800      2626
    12.5000      2178
    12.5200      1800
    12.5400      1392
    12.5600       966
    12.5800       662
    12.6000       474
    12.6200       376
    12.6400       302
    12.6600       212
    12.6800       168
    12.7000       160
    12.7200       144
    12.7400       130
    12.7600       116
    12.7800       106
    12.8000        94
    12.8200       100
    12.8400        78
    12.8600        74
    12.8800       100
    12.9000        80
    12.9200        64
    12.9400        78
    12.9600        76
    12.9800        70
    13.0000        80
    13.0200        80
    13.0400        74
    13.0600        76
    13.0800        80
    13.1000        70
    13.1200        76
    13.1400        78
    13.1600        70
    13.1800        72
    13.2000        76
    13.2200        72
    13.2400        74
    13.2600        78
    13.2800        66
    13.3000        64
    13.3200        76
    13.3400        76
    13.3600        64
    13.3800        80
    13.4000        60
    13.4200        66
    13.4400        68
    13.4600        62
    13.4800        72
    13.5000        80
    13.5200        72
    13.5400        70
    13.5600        66
    13.5800        84
    13.6000        72
    13.6200        84
    13.6400        66
    13.6600        74
    13.6800        72
    13.7000        58
    13.7200        78
    13.7400        54
    13.7600        68
    13.7800        82
    13.8000        74
    13.8200        82
    13.8400        64
    13.8600        52
    13.8800        68
    13.9000        60
    13.9200        60
    13.9400        62
    13.9600        62
    13.9800        94
    14.0000        66
    14.0200        76
    14.0400        68
    14.0600        58
    14.0800        60
    14.1000        68
    14.1200        58
    14.1400        68
    14.1600        62
    14.1800        60
    14.2000        54
    14.2200        62
    14.2400        64
    14.2600        62
    14.2800        60
    14.3000        70
    14.3200        62
    14.3400        80
    14.3600        64
    14.3800        52
    14.4000        48
    14.4200        70
    14.4400        82
    14.4600        52
    14.4800        68
    14.5000        62
    14.5200        82
    14.5400        54
    14.5600        60
    14.5800        58
    14.6000        56
    14.6200        62
    14.6400        76
    14.6600        74
    14.6800        64
    14.7000        58
    14.7200        58
    14.7400        48
    14.7600        74
    14.7800        70
    14.8000        58
    14.8200        62
    14.8400        48
    14.8600        74
    14.8800        56
    14.9000        56
    14.9200        58
    14.9400        66
    14.9600        72
    14.9800        66
    15.0000        66
    15.0200        66
    15.0400        72
    15.0600        64
    15.0800        58
    15.1000        80
    15.1200        56
    15.1400        60
    15.1600        62
    15.1800        50
    15.2000        66
    15.2200        54
    15.2400        68
    15.2600        74
    15.2800        70
    15.3000        56
    15.3200        58
    15.3400        66
    15.3600        54
    15.3800        58
    15.4000        52
    15.4200        50
    15.4400        80
    15.4600        54
    15.4800        56
    15.5000        74
    15.5200        50
    15.5400        68
    15.5600        58
    15.5800        60
    15.6000        62
    15.6200        44
    15.6400        52
    15.6600        50
    15.6800        50
    15.7000        46
    15.7200        54
    15.7400        54
    15.7600        54
    15.7800        46
    15.8000        52
    15.8200        60
    15.8400        46
    15.8600        70
    15.8800        46
    15.9000        58
    15.9200        70
    15.9400        42
    15.9600        58
    15.9800        66
    16.0000        54
    16.0200        54
    16.0400        50
    16.0600        56
    16.0800        66
    16.1000        52
    16.1200        58
    16.1400        52
    16.1600        60
    16.1800        52
    16.2000        58
    16.2200        46
    16.2400        54
    16.2600        64
    16.2800        50
    16.3000        58
    16.3200        56
    16.3400        56
    16.3600        56
    16.3800        64
    16.4000        58
    16.4200        50
    16.4400        50
    16.4600        44
    16.4800        64
    16.5000        50
    16.5200        54
    16.5400        72
    16.5600        60
    16.5800        50
    16.6000        56
    16.6200        50
    16.6400        52
    16.6600        50
    16.6800        58
    16.7000        60
    16.7200        56
    16.7400        62
    16.7600        60
    16.7800        54
    16.8000        56
    16.8200        60
    16.8400        62
    16.8600        60
    16.8800        66
    16.9000        62
    16.9200        54
    16.9400        62
    16.9600        56
    16.9800        60
    17.0000        60
    17.0200        52
    17.0400        52
    17.0600        66
    17.0800        46
    17.1000        58
    17.1200        54
    17.1400        68
    17.1600        54
    17.1800        52
    17.2000        52
    17.2200        50
    17.2400        56
    17.2600        64
    17.2800        62
    17.3000        50
    17.3200        54
    17.3400        72
    17.3600        64
    17.3800        58
    17.4000        52
    17.4200        48
    17.4400        44
    17.4600        66
    17.4800        56
    17.5000        56
    17.5200        54
    17.5400        62
    17.5600        48
    17.5800        60
    17.6000        40
    17.6200        60
    17.6400        58
    17.6600        44
    17.6800        46
    17.7000        64
    17.7200        58
    17.7400        56
    17.7600        60
    17.7800        60
    17.8000        58
    17.8200        58
    17.8400        60
    17.8600        54
    17.8800        64
    17.9000        64
    17.9200        56
    17.9400        62
    17.9600        68
    17.9800        54
    18.0000        60
    18.0200        50
    18.0400        52
    18.0600        52
    18.0800        74
    18.1000        58
    18.1200        62
    18.1400        70
    18.1600        82
    18.1800        60
    18.2000        80
    18.2200        66
    18.2400        86
    18.2600        88
    18.2800        62
    18.3000       104
    18.3200        96
    18.3400        90
    18.3600       120
    18.3800       120
    18.4000       124
    18.4200       152
    18.4400       178
    18.4600       194
    18.4800       222
    18.5000       242
    18.5200       274
    18.5400       296
    18.5600       390
    18.5800       404
    18.6000       532
    18.6200       634
    18.6400       794
    18.6600       890
    18.6800      1042
    18.7000      1146
    18.7200      1346
    18.7400      1354
    18.7600      1410
    18.7800      1258
    18.8000      1134
    18.8200       880
    18.8400       672
    18.8600       524
    18.8800       394
    18.9000       278
    18.9200       222
    18.9400       182
    18.9600       146
    18.9800       130
    19.0000        84
    19.0200        88
    19.0400        84
    19.0600        96
    19.0800        82
    19.1000        80
    19.1200        78
    19.1400        72
    19.1600        74
    19.1800        68
    19.2000        60
    19.2200        76
    19.2400        84
    19.2600        62
    19.2800        82
    19.3000        60
    19.3200        78
    19.3400        62
    19.3600        66
    19.3800        42
    19.4000        58
    19.4200        54
    19.4400        54
    19.4600        68
    19.4800        62
    19.5000        66
    19.5200        52
    19.5400        58
    19.5600        72
    19.5800        56
    19.6000        58
    19.6200        50
    19.6400        52
    19.6600        52
    19.6800        56
    19.7000        68
    19.7200        62
    19.7400        52
    19.7600        50
    19.7800        46
    19.8000        50
    19.8200        48
    19.8400        60
    19.8600        60
    19.8800        56
    19.9000        44
    19.9200        56
    19.9400        50
    19.9600        46
    19.9800        58
    20.0000        60
    20.0200        70
    20.0400        62
    20.0600        60
    20.0800        62
    20.1000        44
    20.1200        56
    20.1400        54
    20.1600        60
    20.1800        56
    20.2000        52
    20.2200        54
    20.2400        50
    20.2600        46
    20.2800        78
    20.3000        48
    20.3200        48
    20.3400        52
    20.3600        50
