/////////////////////////////////////////////////////////////////////////////////
/// Profile Data Ascii Dump (XRD)                                             ///
/////////////////////////////////////////////////////////////////////////////////

  Group     : Swayze
  Data      : GDS158
  File Name : GDS158.RAW

# Profile Datafile
          comment             = Clinochlore 
          date & time         = 08-04-14 08:24:53 

# Measurement Condition
    X-ray tube
          target              = Cu 
          voltage             = 40.0 (kV)
          current             = 30.0 (mA)
    Slits
          divergence slit     = 2.00000 (deg) 
          scatter slit        = 2.00000 (deg) 
          receiving slit      = 0.15000 (mm)  
    Scanning
          drive axis          = Theta-2Theta 
          scan range          =    4.000 -   65.000 
          scan mode           = Continuous Scan 
          scan speed          =   2.0000 (deg/min) 
          sampling pitch      =   0.0200 (deg) 
          preset time         =   0.60 (sec) 

# Data      [ Total No. = 3051 ]
  <2Theta>   <   I   >
     4.0000       188
     4.0200       210
     4.0400       204
     4.0600       210
     4.0800       180
     4.1000       176
     4.1200       178
     4.1400       156
     4.1600       194
     4.1800       228
     4.2000       160
     4.2200       204
     4.2400       200
     4.2600       164
     4.2800       186
     4.3000       208
     4.3200       162
     4.3400       166
     4.3600       176
     4.3800       188
     4.4000       170
     4.4200       170
     4.4400       172
     4.4600       196
     4.4800       188
     4.5000       156
     4.5200       178
     4.5400       150
     4.5600       168
     4.5800       166
     4.6000       164
     4.6200       190
     4.6400       190
     4.6600       164
     4.6800       182
     4.7000       180
     4.7200       160
     4.7400       176
     4.7600       162
     4.7800       162
     4.8000       174
     4.8200       170
     4.8400       160
     4.8600       164
     4.8800       168
     4.9000       160
     4.9200       158
     4.9400       186
     4.9600       172
     4.9800       170
     5.0000       186
     5.0200       176
     5.0400       150
     5.0600       192
     5.0800       162
     5.1000       178
     5.1200       180
     5.1400       182
     5.1600       168
     5.1800       154
     5.2000       164
     5.2200       164
     5.2400       170
     5.2600       158
     5.2800       172
     5.3000       208
     5.3200       174
     5.3400       186
     5.3600       184
     5.3800       176
     5.4000       188
     5.4200       172
     5.4400       162
     5.4600       180
     5.4800       210
     5.5000       194
     5.5200       166
     5.5400       208
     5.5600       208
     5.5800       212
     5.6000       240
     5.6200       214
     5.6400       260
     5.6600       190
     5.6800       212
     5.7000       216
     5.7200       224
     5.7400       234
     5.7600       254
     5.7800       252
     5.8000       278
     5.8200       312
     5.8400       328
     5.8600       334
     5.8800       334
     5.9000       386
     5.9200       404
     5.9400       452
     5.9600       468
     5.9800       508
     6.0000       556
     6.0200       670
     6.0400       738
     6.0600       876
     6.0800      1006
     6.1000      1180
     6.1200      1600
     6.1400      1900
     6.1600      2026
     6.1800      2218
     6.2000      1940
     6.2200      1488
     6.2400      1032
     6.2600       722
     6.2800       470
     6.3000       324
     6.3200       260
     6.3400       256
     6.3600       232
     6.3800       212
     6.4000       220
     6.4200       188
     6.4400       160
     6.4600       188
     6.4800       160
     6.5000       164
     6.5200       170
     6.5400       166
     6.5600       140
     6.5800       150
     6.6000       136
     6.6200       166
     6.6400       148
     6.6600       136
     6.6800       150
     6.7000       126
     6.7200       148
     6.7400       130
     6.7600       150
     6.7800       152
     6.8000       122
     6.8200       148
     6.8400       136
     6.8600       124
     6.8800       142
     6.9000       134
     6.9200       140
     6.9400       134
     6.9600       112
     6.9800       126
     7.0000       140
     7.0200       142
     7.0400       130
     7.0600       108
     7.0800       104
     7.1000       136
     7.1200       154
     7.1400       136
     7.1600       116
     7.1800       144
     7.2000       132
     7.2200       130
     7.2400       128
     7.2600       114
     7.2800       120
     7.3000       126
     7.3200       126
     7.3400       120
     7.3600       138
     7.3800       130
     7.4000       150
     7.4200       104
     7.4400       118
     7.4600       120
     7.4800       140
     7.5000       116
     7.5200       140
     7.5400       134
     7.5600       116
     7.5800       122
     7.6000       116
     7.6200       106
     7.6400       112
     7.6600       112
     7.6800       126
     7.7000       106
     7.7200       132
     7.7400       132
     7.7600        94
     7.7800       120
     7.8000       140
     7.8200       106
     7.8400        92
     7.8600       130
     7.8800       128
     7.9000       114
     7.9200       116
     7.9400       120
     7.9600       126
     7.9800       116
     8.0000       110
     8.0200       114
     8.0400       138
     8.0600       144
     8.0800       130
     8.1000       118
     8.1200       114
     8.1400       112
     8.1600       112
     8.1800        92
     8.2000       120
     8.2200       106
     8.2400       110
     8.2600       114
     8.2800       128
     8.3000        86
     8.3200       122
     8.3400       116
     8.3600       132
     8.3800       126
     8.4000        92
     8.4200       124
     8.4400       104
     8.4600       132
     8.4800       118
     8.5000       106
     8.5200       114
     8.5400       130
     8.5600       112
     8.5800       130
     8.6000       128
     8.6200       126
     8.6400       122
     8.6600       120
     8.6800       120
     8.7000       112
     8.7200       132
     8.7400       114
     8.7600        94
     8.7800       136
     8.8000       132
     8.8200       112
     8.8400       132
     8.8600       112
     8.8800       120
     8.9000       130
     8.9200       134
     8.9400       112
     8.9600       116
     8.9800       116
     9.0000       130
     9.0200       128
     9.0400       130
     9.0600        98
     9.0800       124
     9.1000       134
     9.1200       130
     9.1400       126
     9.1600       128
     9.1800       116
     9.2000       128
     9.2200       114
     9.2400       112
     9.2600       118
     9.2800       112
     9.3000       128
     9.3200       132
     9.3400       108
     9.3600       106
     9.3800       108
     9.4000       114
     9.4200       122
     9.4400       100
     9.4600       124
     9.4800        84
     9.5000       100
     9.5200       108
     9.5400       108
     9.5600       112
     9.5800       144
     9.6000       114
     9.6200       118
     9.6400       116
     9.6600       128
     9.6800       102
     9.7000       108
     9.7200       116
     9.7400       116
     9.7600        92
     9.7800       126
     9.8000       106
     9.8200       114
     9.8400       116
     9.8600       108
     9.8800        92
     9.9000       106
     9.9200       118
     9.9400       128
     9.9600       110
     9.9800       118
    10.0000       102
    10.0200       120
    10.0400       114
    10.0600       108
    10.0800       106
    10.1000       104
    10.1200       112
    10.1400       116
    10.1600        92
    10.1800       120
    10.2000       100
    10.2200       102
    10.2400       122
    10.2600       108
    10.2800        96
    10.3000       108
    10.3200       108
    10.3400        80
    10.3600       100
    10.3800        86
    10.4000       100
    10.4200        88
    10.4400        84
    10.4600       106
    10.4800       102
    10.5000        98
    10.5200       120
    10.5400        80
    10.5600       102
    10.5800       112
    10.6000       100
    10.6200        88
    10.6400        96
    10.6600       100
    10.6800        86
    10.7000       120
    10.7200        92
    10.7400        86
    10.7600        86
    10.7800       106
    10.8000       110
    10.8200       118
    10.8400        92
    10.8600        90
    10.8800       104
    10.9000       100
    10.9200       110
    10.9400        86
    10.9600       108
    10.9800        98
    11.0000       132
    11.0200        86
    11.0400        96
    11.0600       132
    11.0800        92
    11.1000       102
    11.1200       102
    11.1400       118
    11.1600       102
    11.1800       164
    11.2000       100
    11.2200       124
    11.2400       114
    11.2600       108
    11.2800       110
    11.3000       112
    11.3200        86
    11.3400        94
    11.3600        96
    11.3800       112
    11.4000       112
    11.4200        82
    11.4400        96
    11.4600       106
    11.4800       110
    11.5000       106
    11.5200       120
    11.5400        90
    11.5600       108
    11.5800       102
    11.6000       122
    11.6200       132
    11.6400       148
    11.6600       150
    11.6800       152
    11.7000       104
    11.7200       160
    11.7400       132
    11.7600       168
    11.7800       170
    11.8000       176
    11.8200       184
    11.8400       206
    11.8600       240
    11.8800       202
    11.9000       212
    11.9200       268
    11.9400       270
    11.9600       298
    11.9800       332
    12.0000       374
    12.0200       422
    12.0400       428
    12.0600       504
    12.0800       618
    12.1000       582
    12.1200       704
    12.1400       744
    12.1600       892
    12.1800       970
    12.2000      1120
    12.2200      1342
    12.2400      1430
    12.2600      1786
    12.2800      2114
    12.3000      2758
    12.3200      3406
    12.3400      4200
    12.3600      4992
    12.3800      5794
    12.4000      6082
    12.4200      6224
    12.4400      5944
    12.4600      4794
    12.4800      3630
    12.5000      2286
    12.5200      1424
    12.5400       872
    12.5600       576
    12.5800       388
    12.6000       322
    12.6200       292
    12.6400       280
    12.6600       228
    12.6800       206
    12.7000       212
    12.7200       152
    12.7400       134
    12.7600       120
    12.7800       134
    12.8000       112
    12.8200        86
    12.8400       118
    12.8600        78
    12.8800        84
    12.9000       118
    12.9200        82
    12.9400       100
    12.9600        66
    12.9800        92
    13.0000        96
    13.0200        72
    13.0400        78
    13.0600        82
    13.0800        66
    13.1000        78
    13.1200        84
    13.1400       100
    13.1600        86
    13.1800        80
    13.2000        78
    13.2200        82
    13.2400        78
    13.2600        80
    13.2800        68
    13.3000        76
    13.3200        60
    13.3400        84
    13.3600        52
    13.3800        86
    13.4000        64
    13.4200        82
    13.4400        66
    13.4600        76
    13.4800        64
    13.5000        64
    13.5200        64
    13.5400        76
    13.5600        76
    13.5800        82
    13.6000        76
    13.6200        60
    13.6400        54
    13.6600        76
    13.6800        76
    13.7000        68
    13.7200        60
    13.7400        62
    13.7600        60
    13.7800        76
    13.8000        56
    13.8200        74
    13.8400        68
    13.8600        62
    13.8800        60
    13.9000        66
    13.9200        60
    13.9400        66
    13.9600        74
    13.9800        66
    14.0000        88
    14.0200        72
    14.0400        58
    14.0600        68
    14.0800        70
    14.1000        60
    14.1200        66
    14.1400        66
    14.1600        64
    14.1800        56
    14.2000        62
    14.2200        78
    14.2400        78
    14.2600        60
    14.2800        72
    14.3000        58
    14.3200        62
    14.3400        70
    14.3600        66
    14.3800        76
    14.4000        60
    14.4200        58
    14.4400        64
    14.4600        74
    14.4800        70
    14.5000        52
    14.5200        58
    14.5400        60
    14.5600        78
    14.5800        54
    14.6000        62
    14.6200        66
    14.6400        82
    14.6600        76
    14.6800        70
    14.7000        74
    14.7200        64
    14.7400        68
    14.7600        42
    14.7800        60
    14.8000        60
    14.8200        50
    14.8400        72
    14.8600        70
    14.8800        60
    14.9000        68
    14.9200        62
    14.9400        60
    14.9600        66
    14.9800        66
    15.0000        76
    15.0200        80
    15.0400        58
    15.0600        68
    15.0800        56
    15.1000        84
    15.1200        70
    15.1400        58
    15.1600        56
    15.1800        76
    15.2000        60
    15.2200        58
    15.2400        54
    15.2600        62
    15.2800        72
    15.3000        64
    15.3200        68
    15.3400        74
    15.3600        54
    15.3800        58
    15.4000        60
    15.4200        68
    15.4400        60
    15.4600        64
    15.4800        58
    15.5000        58
    15.5200        68
    15.5400        70
    15.5600        62
    15.5800        74
    15.6000        58
    15.6200        54
    15.6400        60
    15.6600        70
    15.6800        52
    15.7000        62
    15.7200        64
    15.7400        54
    15.7600        62
    15.7800        66
    15.8000        62
    15.8200        64
    15.8400        58
    15.8600        50
    15.8800        58
    15.9000        64
    15.9200        72
    15.9400        76
    15.9600        66
    15.9800        60
    16.0000        58
    16.0200        66
    16.0400        60
    16.0600        64
    16.0800        68
    16.1000        70
    16.1200        56
    16.1400        56
    16.1600        70
    16.1800        50
    16.2000        46
    16.2200        46
    16.2400        44
    16.2600        54
    16.2800        72
    16.3000        58
    16.3200        70
    16.3400        50
    16.3600        66
    16.3800        58
    16.4000        52
    16.4200        70
    16.4400        56
    16.4600        54
    16.4800        68
    16.5000        64
    16.5200        68
    16.5400        60
    16.5600        60
    16.5800        66
    16.6000        70
    16.6200        64
    16.6400        56
    16.6600        58
    16.6800        78
    16.7000        68
    16.7200        66
    16.7400        78
    16.7600        64
    16.7800        86
    16.8000        70
    16.8200        60
    16.8400        86
    16.8600        74
    16.8800        78
    16.9000        68
    16.9200        66
    16.9400        66
    16.9600        56
    16.9800        68
    17.0000        58
    17.0200        60
    17.0400        60
    17.0600        66
    17.0800        64
    17.1000        54
    17.1200        58
    17.1400        64
    17.1600        66
    17.1800        56
    17.2000        76
    17.2200        68
    17.2400        62
    17.2600        66
    17.2800        52
    17.3000        60
    17.3200        66
    17.3400        72
    17.3600        70
    17.3800        68
    17.4000        70
    17.4200        58
    17.4400        56
    17.4600        78
    17.4800        70
    17.5000        72
    17.5200        66
    17.5400        66
    17.5600        64
    17.5800        54
    17.6000        70
    17.6200        66
    17.6400        72
    17.6600        56
    17.6800        72
    17.7000        78
    17.7200        80
    17.7400        58
    17.7600        70
    17.7800        64
    17.8000        82
    17.8200        92
    17.8400        90
    17.8600        84
    17.8800        70
    17.9000        82
    17.9200        72
    17.9400        82
    17.9600       104
    17.9800        76
    18.0000        94
    18.0200        88
    18.0400        84
    18.0600       116
    18.0800        80
    18.1000        98
    18.1200        96
    18.1400       114
    18.1600       108
    18.1800       132
    18.2000       142
    18.2200       148
    18.2400       180
    18.2600       176
    18.2800       208
    18.3000       206
    18.3200       238
    18.3400       286
    18.3600       316
    18.3800       382
    18.4000       384
    18.4200       512
    18.4400       572
    18.4600       584
    18.4800       714
    18.5000       890
    18.5200      1074
    18.5400      1376
    18.5600      1624
    18.5800      2130
    18.6000      2626
    18.6200      3144
    18.6400      3568
    18.6600      4086
    18.6800      4188
    18.7000      4440
    18.7200      4338
    18.7400      3868
    18.7600      3056
    18.7800      2250
    18.8000      1500
    18.8200      1028
    18.8400       586
    18.8600       394
    18.8800       296
    18.9000       268
    18.9200       216
    18.9400       182
    18.9600       170
    18.9800       146
    19.0000       146
    19.0200       136
    19.0400       116
    19.0600       112
    19.0800       104
    19.1000       126
    19.1200        90
    19.1400        98
    19.1600       102
    19.1800        94
    19.2000        96
    19.2200       100
    19.2400        92
    19.2600       100
    19.2800       102
    19.3000        78
    19.3200        92
    19.3400        84
    19.3600        88
    19.3800        90
    19.4000        98
    19.4200        72
    19.4400        68
    19.4600        80
    19.4800        70
    19.5000        74
    19.5200        78
    19.5400        70
    19.5600        64
    19.5800        68
    19.6000        72
    19.6200        84
    19.6400        68
    19.6600        62
    19.6800        70
    19.7000        64
    19.7200        88
    19.7400        70
    19.7600        70
    19.7800        68
    19.8000        84
    19.8200        64
    19.8400        62
    19.8600        58
    19.8800        80
    19.9000        54
    19.9200        78
    19.9400        82
    19.9600        58
    19.9800        66
    20.0000        52
    20.0200        54
    20.0400        58
    20.0600        80
    20.0800        66
    20.1000        64
    20.1200        64
    20.1400        76
    20.1600        62
    20.1800        50
    20.2000        60
    20.2200        60
    20.2400        60
    20.2600        64
    20.2800        58
    20.3000        60
    20.3200        62
    20.3400        42
    20.3600        48
    20.3800        62
