/////////////////////////////////////////////////////////////////////////////////
/// Profile Data Ascii Dump (XRD)                                             ///
/////////////////////////////////////////////////////////////////////////////////

  Group     : Swayze
  Data      : GDS113
  File Name : GDS113.RAW

# Profile Datafile
          comment             = Muscovite 
          date & time         = 08-04-09 07:20:19 

# Measurement Condition
    X-ray tube
          target              = Cu 
          voltage             = 40.0 (kV)
          current             = 30.0 (mA)
    Slits
          divergence slit     = 2.00000 (deg) 
          scatter slit        = 2.00000 (deg) 
          receiving slit      = 0.15000 (mm)  
    Scanning
          drive axis          = Theta-2Theta 
          scan range          =    4.000 -   65.000 
          scan mode           = Continuous Scan 
          scan speed          =   2.0000 (deg/min) 
          sampling pitch      =   0.0200 (deg) 
          preset time         =   0.60 (sec) 

# Data      [ Total No. = 3051 ]
  <2Theta>   <   I   >
     4.0000       200
     4.0200       192
     4.0400       176
     4.0600       206
     4.0800       190
     4.1000       194
     4.1200       178
     4.1400       190
     4.1600       178
     4.1800       198
     4.2000       188
     4.2200       196
     4.2400       174
     4.2600       204
     4.2800       170
     4.3000       202
     4.3200       182
     4.3400       176
     4.3600       170
     4.3800       192
     4.4000       176
     4.4200       176
     4.4400       190
     4.4600       202
     4.4800       182
     4.5000       182
     4.5200       188
     4.5400       178
     4.5600       176
     4.5800       186
     4.6000       186
     4.6200       170
     4.6400       164
     4.6600       160
     4.6800       180
     4.7000       172
     4.7200       158
     4.7400       148
     4.7600       196
     4.7800       166
     4.8000       170
     4.8200       154
     4.8400       142
     4.8600       168
     4.8800       162
     4.9000       158
     4.9200       156
     4.9400       160
     4.9600       148
     4.9800       164
     5.0000       186
     5.0200       146
     5.0400       162
     5.0600       170
     5.0800       160
     5.1000       162
     5.1200       158
     5.1400       152
     5.1600       156
     5.1800       158
     5.2000       148
     5.2200       158
     5.2400       180
     5.2600       164
     5.2800       150
     5.3000       170
     5.3200       168
     5.3400       160
     5.3600       166
     5.3800       158
     5.4000       162
     5.4200       136
     5.4400       160
     5.4600       160
     5.4800       162
     5.5000       152
     5.5200       170
     5.5400       160
     5.5600       148
     5.5800       164
     5.6000       128
     5.6200       174
     5.6400       156
     5.6600       172
     5.6800       192
     5.7000       152
     5.7200       170
     5.7400       138
     5.7600       180
     5.7800       164
     5.8000       148
     5.8200       174
     5.8400       156
     5.8600       158
     5.8800       166
     5.9000       146
     5.9200       144
     5.9400       166
     5.9600       142
     5.9800       142
     6.0000       150
     6.0200       160
     6.0400       174
     6.0600       168
     6.0800       162
     6.1000       178
     6.1200       148
     6.1400       148
     6.1600       164
     6.1800       142
     6.2000       142
     6.2200       158
     6.2400       148
     6.2600       152
     6.2800       160
     6.3000       138
     6.3200       156
     6.3400       160
     6.3600       140
     6.3800       146
     6.4000       144
     6.4200       148
     6.4400       148
     6.4600       140
     6.4800       146
     6.5000       124
     6.5200       168
     6.5400       128
     6.5600       122
     6.5800       150
     6.6000       142
     6.6200       130
     6.6400       136
     6.6600       126
     6.6800       122
     6.7000       120
     6.7200       142
     6.7400       112
     6.7600       140
     6.7800       122
     6.8000       126
     6.8200       138
     6.8400       120
     6.8600       128
     6.8800       144
     6.9000       130
     6.9200       120
     6.9400       130
     6.9600       108
     6.9800       134
     7.0000       110
     7.0200       118
     7.0400       108
     7.0600       134
     7.0800       122
     7.1000       114
     7.1200       104
     7.1400       120
     7.1600       114
     7.1800       128
     7.2000       104
     7.2200       112
     7.2400       106
     7.2600       138
     7.2800       122
     7.3000       108
     7.3200       124
     7.3400       136
     7.3600       120
     7.3800       134
     7.4000       148
     7.4200       128
     7.4400       110
     7.4600       120
     7.4800       136
     7.5000       138
     7.5200       124
     7.5400       126
     7.5600       132
     7.5800       134
     7.6000       142
     7.6200       140
     7.6400       118
     7.6600       132
     7.6800       126
     7.7000       110
     7.7200       104
     7.7400       124
     7.7600       128
     7.7800       118
     7.8000       122
     7.8200       122
     7.8400       132
     7.8600       102
     7.8800       134
     7.9000       134
     7.9200       116
     7.9400       152
     7.9600       116
     7.9800       142
     8.0000       150
     8.0200       136
     8.0400       134
     8.0600       150
     8.0800       144
     8.1000       126
     8.1200       142
     8.1400       158
     8.1600       142
     8.1800       158
     8.2000       174
     8.2200       156
     8.2400       160
     8.2600       172
     8.2800       146
     8.3000       208
     8.3200       186
     8.3400       230
     8.3600       254
     8.3800       260
     8.4000       310
     8.4200       382
     8.4400       376
     8.4600       376
     8.4800       458
     8.5000       488
     8.5200       512
     8.5400       602
     8.5600       616
     8.5800       742
     8.6000       834
     8.6200       952
     8.6400      1102
     8.6600      1430
     8.6800      1684
     8.7000      2044
     8.7200      2836
     8.7400      4162
     8.7600      6308
     8.7800      8638
     8.8000     10254
     8.8200      9194
     8.8400      6936
     8.8600      4240
     8.8800      2322
     8.9000      1342
     8.9200       670
     8.9400       422
     8.9600       352
     8.9800       316
     9.0000       278
     9.0200       268
     9.0400       246
     9.0600       232
     9.0800       202
     9.1000       186
     9.1200       174
     9.1400       158
     9.1600       120
     9.1800       150
     9.2000       120
     9.2200       128
     9.2400       124
     9.2600       112
     9.2800       136
     9.3000       134
     9.3200       108
     9.3400       100
     9.3600       124
     9.3800       112
     9.4000       130
     9.4200       134
     9.4400       104
     9.4600       106
     9.4800       112
     9.5000       118
     9.5200       110
     9.5400       112
     9.5600       112
     9.5800        84
     9.6000       122
     9.6200       132
     9.6400       114
     9.6600       116
     9.6800       112
     9.7000       106
     9.7200        94
     9.7400        98
     9.7600        98
     9.7800        94
     9.8000       102
     9.8200       112
     9.8400       100
     9.8600       104
     9.8800        84
     9.9000       114
     9.9200       106
     9.9400       118
     9.9600       100
     9.9800       116
    10.0000       106
    10.0200       114
    10.0400       114
    10.0600       106
    10.0800       106
    10.1000       118
    10.1200       104
    10.1400        98
    10.1600        90
    10.1800       114
    10.2000        90
    10.2200       108
    10.2400       110
    10.2600       108
    10.2800       108
    10.3000       106
    10.3200       110
    10.3400        80
    10.3600       104
    10.3800        98
    10.4000       120
    10.4200        98
    10.4400        90
    10.4600        96
    10.4800       104
    10.5000        82
    10.5200        98
    10.5400       106
    10.5600        96
    10.5800       110
    10.6000        86
    10.6200       106
    10.6400       108
    10.6600       116
    10.6800        92
    10.7000        76
    10.7200        84
    10.7400        78
    10.7600        84
    10.7800       110
    10.8000       108
    10.8200        96
    10.8400        86
    10.8600        90
    10.8800        98
    10.9000       106
    10.9200        88
    10.9400        94
    10.9600        86
    10.9800        84
    11.0000        86
    11.0200        84
    11.0400        74
    11.0600        74
    11.0800        76
    11.1000        98
    11.1200        92
    11.1400        78
    11.1600        84
    11.1800       100
    11.2000       100
    11.2200        80
    11.2400        86
    11.2600        94
    11.2800        72
    11.3000        80
    11.3200        78
    11.3400        92
    11.3600        74
    11.3800        92
    11.4000        78
    11.4200        68
    11.4400        66
    11.4600        98
    11.4800        76
    11.5000        86
    11.5200        88
    11.5400        96
    11.5600        80
    11.5800        76
    11.6000        74
    11.6200        82
    11.6400        66
    11.6600        82
    11.6800        80
    11.7000        88
    11.7200        86
    11.7400        92
    11.7600        70
    11.7800        82
    11.8000        84
    11.8200        74
    11.8400        66
    11.8600        68
    11.8800        62
    11.9000        86
    11.9200        94
    11.9400        64
    11.9600        96
    11.9800        80
    12.0000        80
    12.0200        76
    12.0400        68
    12.0600        72
    12.0800        80
    12.1000        70
    12.1200        78
    12.1400        90
    12.1600        64
    12.1800        88
    12.2000        78
    12.2200        74
    12.2400        78
    12.2600        72
    12.2800        88
    12.3000        80
    12.3200        66
    12.3400        82
    12.3600        64
    12.3800        80
    12.4000        64
    12.4200        80
    12.4400        66
    12.4600        74
    12.4800        64
    12.5000        74
    12.5200        64
    12.5400        84
    12.5600        62
    12.5800        72
    12.6000        72
    12.6200        66
    12.6400        76
    12.6600        84
    12.6800        76
    12.7000        70
    12.7200        78
    12.7400        82
    12.7600        52
    12.7800        88
    12.8000        94
    12.8200        70
    12.8400        64
    12.8600        80
    12.8800        76
    12.9000        56
    12.9200        74
    12.9400        78
    12.9600        56
    12.9800        72
    13.0000        86
    13.0200        98
    13.0400        84
    13.0600        82
    13.0800        68
    13.1000        86
    13.1200        64
    13.1400        70
    13.1600        64
    13.1800        84
    13.2000        66
    13.2200        86
    13.2400        78
    13.2600        70
    13.2800        58
    13.3000        70
    13.3200        70
    13.3400        70
    13.3600        66
    13.3800        74
    13.4000        72
    13.4200        58
    13.4400        82
    13.4600        76
    13.4800        60
    13.5000        74
    13.5200        60
    13.5400        62
    13.5600        78
    13.5800        58
    13.6000        68
    13.6200        76
    13.6400        72
    13.6600        62
    13.6800        54
    13.7000        54
    13.7200        66
    13.7400        82
    13.7600        70
    13.7800        58
    13.8000        74
    13.8200        74
    13.8400        66
    13.8600        60
    13.8800        60
    13.9000        74
    13.9200        84
    13.9400        68
    13.9600        58
    13.9800        62
    14.0000        60
    14.0200        62
    14.0400        72
    14.0600        68
    14.0800        50
    14.1000        74
    14.1200        54
    14.1400        56
    14.1600        62
    14.1800        66
    14.2000        64
    14.2200        66
    14.2400        56
    14.2600        74
    14.2800        76
    14.3000        78
    14.3200        66
    14.3400        96
    14.3600        70
    14.3800        50
    14.4000        60
    14.4200        78
    14.4400        62
    14.4600        74
    14.4800        62
    14.5000        70
    14.5200        52
    14.5400        76
    14.5600        78
    14.5800        66
    14.6000        60
    14.6200        60
    14.6400        50
    14.6600        64
    14.6800        58
    14.7000        66
    14.7200        72
    14.7400        62
    14.7600        56
    14.7800        78
    14.8000        60
    14.8200        60
    14.8400        68
    14.8600        66
    14.8800        72
    14.9000        78
    14.9200        70
    14.9400        70
    14.9600        62
    14.9800        60
    15.0000        70
    15.0200        64
    15.0400        74
    15.0600        74
    15.0800        62
    15.1000        62
    15.1200        58
    15.1400        78
    15.1600        84
    15.1800        60
    15.2000        68
    15.2200        62
    15.2400        50
    15.2600        62
    15.2800        58
    15.3000        56
    15.3200        54
    15.3400        72
    15.3600        62
    15.3800        64
    15.4000        62
    15.4200        56
    15.4400        60
    15.4600        64
    15.4800        66
    15.5000        86
    15.5200        62
    15.5400        34
    15.5600        58
    15.5800        58
    15.6000        48
    15.6200        50
    15.6400        52
    15.6600        50
    15.6800        62
    15.7000        68
    15.7200        68
    15.7400        52
    15.7600        76
    15.7800        60
    15.8000        56
    15.8200        50
    15.8400        54
    15.8600        70
    15.8800        66
    15.9000        62
    15.9200        68
    15.9400        76
    15.9600        68
    15.9800        86
    16.0000        80
    16.0200        72
    16.0400        52
    16.0600        70
    16.0800        54
    16.1000        58
    16.1200        64
    16.1400        72
    16.1600        62
    16.1800        54
    16.2000        60
    16.2200        64
    16.2400        70
    16.2600        66
    16.2800        66
    16.3000        58
    16.3200        64
    16.3400        70
    16.3600        60
    16.3800        52
    16.4000        40
    16.4200        52
    16.4400        58
    16.4600        62
    16.4800        70
    16.5000        62
    16.5200        56
    16.5400        56
    16.5600        50
    16.5800        70
    16.6000        62
    16.6200        68
    16.6400        66
    16.6600        66
    16.6800        66
    16.7000        64
    16.7200        72
    16.7400        66
    16.7600        66
    16.7800        66
    16.8000        66
    16.8200       100
    16.8400        68
    16.8600        72
    16.8800        78
    16.9000        72
    16.9200        62
    16.9400        80
    16.9600        68
    16.9800        54
    17.0000        96
    17.0200        80
    17.0400        70
    17.0600        72
    17.0800        82
    17.1000        88
    17.1200        82
    17.1400        84
    17.1600        92
    17.1800        90
    17.2000       106
    17.2200       110
    17.2400       120
    17.2600       138
    17.2800       136
    17.3000       144
    17.3200       158
    17.3400       160
    17.3600       212
    17.3800       214
    17.4000       294
    17.4200       286
    17.4400       284
    17.4600       366
    17.4800       446
    17.5000       496
    17.5200       590
    17.5400       752
    17.5600       988
    17.5800      1230
    17.6000      1734
    17.6200      2436
    17.6400      3206
    17.6600      4358
    17.6800      5386
    17.7000      5558
    17.7200      5092
    17.7400      4034
    17.7600      2782
    17.7800      1720
    17.8000      1002
    17.8200       570
    17.8400       364
    17.8600       246
    17.8800       222
    17.9000       170
    17.9200       162
    17.9400       140
    17.9600       144
    17.9800       144
    18.0000       110
    18.0200       108
    18.0400        80
    18.0600        74
    18.0800        60
    18.1000        72
    18.1200        68
    18.1400        68
    18.1600        64
    18.1800        72
    18.2000        74
    18.2200        72
    18.2400        64
    18.2600        62
    18.2800        68
    18.3000        94
    18.3200        74
    18.3400        52
    18.3600        64
    18.3800        62
    18.4000        58
    18.4200        60
    18.4400        62
    18.4600        60
    18.4800        68
    18.5000        54
    18.5200        52
    18.5400        44
    18.5600        62
    18.5800        54
    18.6000        76
    18.6200        54
    18.6400        48
    18.6600        54
    18.6800        38
    18.7000        48
    18.7200        44
    18.7400        54
    18.7600        58
    18.7800        64
    18.8000        56
    18.8200        52
    18.8400        48
    18.8600        58
    18.8800        42
    18.9000        54
    18.9200        60
    18.9400        60
    18.9600        54
    18.9800        50
    19.0000        40
    19.0200        48
    19.0400        54
    19.0600        50
    19.0800        56
    19.1000        48
    19.1200        50
    19.1400        56
    19.1600        48
    19.1800        56
    19.2000        60
    19.2200        44
    19.2400        42
    19.2600        64
    19.2800        60
    19.3000        68
    19.3200        44
    19.3400        42
    19.3600        58
    19.3800        72
    19.4000        60
    19.4200        64
    19.4400        70
    19.4600        62
    19.4800        84
    19.5000        72
    19.5200        80
    19.5400        78
    19.5600        92
    19.5800        94
    19.6000       116
    19.6200        94
    19.6400       124
    19.6600       138
    19.6800       120
    19.7000       144
    19.7200       138
    19.7400       170
    19.7600       144
    19.7800       166
    19.8000       168
    19.8200       128
    19.8400       148
    19.8600       146
    19.8800       110
    19.9000       108
    19.9200        92
    19.9400        74
    19.9600        64
    19.9800        96
    20.0000        62
    20.0200        76
    20.0400        76
    20.0600        78
    20.0800        56
    20.1000        62
    20.1200        62
    20.1400        54
    20.1600        64
    20.1800        64
    20.2000        64
    20.2200        50
    20.2400        62
    20.2600        44
    20.2800        60
    20.3000        60
    20.3200        68
    20.3400        68
    20.3600        58
    20.3800        54
