/////////////////////////////////////////////////////////////////////////////////
/// Profile Data Ascii Dump (XRD)                                             ///
/////////////////////////////////////////////////////////////////////////////////

  Group     : Swayze
  Data      : GDS159
  File Name : GDS159.RAW

# Profile Datafile
          comment             = Clinochlore or Sheridanite 
          date & time         = 08-04-14 07:20:35 

# Measurement Condition
    X-ray tube
          target              = Cu 
          voltage             = 40.0 (kV)
          current             = 30.0 (mA)
    Slits
          divergence slit     = 2.00000 (deg) 
          scatter slit        = 2.00000 (deg) 
          receiving slit      = 0.15000 (mm)  
    Scanning
          drive axis          = Theta-2Theta 
          scan range          =    4.000 -   65.000 
          scan mode           = Continuous Scan 
          scan speed          =   2.0000 (deg/min) 
          sampling pitch      =   0.0200 (deg) 
          preset time         =   0.60 (sec) 

# Data      [ Total No. = 3051 ]
  <2Theta>   <   I   >
     4.0000       180
     4.0200       186
     4.0400       196
     4.0600       238
     4.0800       190
     4.1000       216
     4.1200       206
     4.1400       186
     4.1600       190
     4.1800       184
     4.2000       180
     4.2200       206
     4.2400       224
     4.2600       204
     4.2800       204
     4.3000       192
     4.3200       194
     4.3400       172
     4.3600       192
     4.3800       178
     4.4000       210
     4.4200       198
     4.4400       182
     4.4600       182
     4.4800       184
     4.5000       206
     4.5200       160
     4.5400       194
     4.5600       174
     4.5800       186
     4.6000       154
     4.6200       160
     4.6400       172
     4.6600       202
     4.6800       198
     4.7000       178
     4.7200       166
     4.7400       190
     4.7600       168
     4.7800       182
     4.8000       170
     4.8200       168
     4.8400       182
     4.8600       168
     4.8800       170
     4.9000       192
     4.9200       158
     4.9400       220
     4.9600       176
     4.9800       182
     5.0000       172
     5.0200       166
     5.0400       164
     5.0600       202
     5.0800       162
     5.1000       156
     5.1200       166
     5.1400       176
     5.1600       164
     5.1800       196
     5.2000       172
     5.2200       210
     5.2400       170
     5.2600       236
     5.2800       212
     5.3000       196
     5.3200       196
     5.3400       182
     5.3600       200
     5.3800       168
     5.4000       216
     5.4200       212
     5.4400       186
     5.4600       204
     5.4800       202
     5.5000       192
     5.5200       204
     5.5400       214
     5.5600       240
     5.5800       228
     5.6000       222
     5.6200       230
     5.6400       206
     5.6600       212
     5.6800       218
     5.7000       224
     5.7200       212
     5.7400       212
     5.7600       290
     5.7800       244
     5.8000       266
     5.8200       266
     5.8400       282
     5.8600       310
     5.8800       304
     5.9000       314
     5.9200       340
     5.9400       376
     5.9600       342
     5.9800       368
     6.0000       396
     6.0200       442
     6.0400       428
     6.0600       502
     6.0800       550
     6.1000       602
     6.1200       552
     6.1400       584
     6.1600       550
     6.1800       490
     6.2000       402
     6.2200       360
     6.2400       316
     6.2600       286
     6.2800       242
     6.3000       226
     6.3200       230
     6.3400       198
     6.3600       220
     6.3800       166
     6.4000       184
     6.4200       194
     6.4400       180
     6.4600       142
     6.4800       180
     6.5000       156
     6.5200       170
     6.5400       174
     6.5600       150
     6.5800       140
     6.6000       152
     6.6200       174
     6.6400       130
     6.6600       148
     6.6800       140
     6.7000       162
     6.7200       146
     6.7400       148
     6.7600       142
     6.7800       154
     6.8000       134
     6.8200       144
     6.8400       158
     6.8600       138
     6.8800       140
     6.9000       116
     6.9200       114
     6.9400       136
     6.9600       148
     6.9800       118
     7.0000       144
     7.0200       118
     7.0400       132
     7.0600       122
     7.0800       126
     7.1000       120
     7.1200       156
     7.1400       156
     7.1600       138
     7.1800       138
     7.2000       126
     7.2200       148
     7.2400       120
     7.2600       128
     7.2800       132
     7.3000       120
     7.3200       130
     7.3400       110
     7.3600       124
     7.3800       110
     7.4000       136
     7.4200       114
     7.4400       130
     7.4600       122
     7.4800       122
     7.5000       124
     7.5200       130
     7.5400       134
     7.5600       110
     7.5800       132
     7.6000       120
     7.6200       132
     7.6400       114
     7.6600       110
     7.6800       130
     7.7000       136
     7.7200       140
     7.7400       108
     7.7600       106
     7.7800       128
     7.8000       142
     7.8200       120
     7.8400       124
     7.8600       126
     7.8800       102
     7.9000       120
     7.9200       118
     7.9400       130
     7.9600       102
     7.9800       136
     8.0000       112
     8.0200       122
     8.0400       136
     8.0600       124
     8.0800       138
     8.1000       114
     8.1200       116
     8.1400       162
     8.1600       134
     8.1800       112
     8.2000       110
     8.2200       116
     8.2400       108
     8.2600       124
     8.2800       114
     8.3000       128
     8.3200       134
     8.3400       120
     8.3600       102
     8.3800       124
     8.4000       130
     8.4200       116
     8.4400       116
     8.4600       126
     8.4800       152
     8.5000       108
     8.5200       106
     8.5400       118
     8.5600       142
     8.5800       138
     8.6000       128
     8.6200       120
     8.6400       132
     8.6600       104
     8.6800       130
     8.7000       116
     8.7200       126
     8.7400       120
     8.7600       112
     8.7800       128
     8.8000       110
     8.8200       106
     8.8400       132
     8.8600       132
     8.8800       122
     8.9000       108
     8.9200       136
     8.9400       120
     8.9600       124
     8.9800       122
     9.0000       134
     9.0200       142
     9.0400       128
     9.0600       120
     9.0800       124
     9.1000       144
     9.1200       142
     9.1400       126
     9.1600       128
     9.1800       132
     9.2000       126
     9.2200       136
     9.2400       148
     9.2600       146
     9.2800       160
     9.3000       152
     9.3200       148
     9.3400       140
     9.3600       170
     9.3800       170
     9.4000       128
     9.4200       126
     9.4400       122
     9.4600       148
     9.4800       122
     9.5000       116
     9.5200       132
     9.5400       134
     9.5600       124
     9.5800       128
     9.6000       112
     9.6200       126
     9.6400       126
     9.6600       122
     9.6800       120
     9.7000       136
     9.7200       116
     9.7400       114
     9.7600       120
     9.7800       106
     9.8000       116
     9.8200        96
     9.8400       112
     9.8600       134
     9.8800       110
     9.9000       100
     9.9200       134
     9.9400       108
     9.9600       102
     9.9800       100
    10.0000        94
    10.0200       104
    10.0400       112
    10.0600       116
    10.0800       114
    10.1000       118
    10.1200       104
    10.1400       136
    10.1600        98
    10.1800        88
    10.2000       122
    10.2200       118
    10.2400       108
    10.2600        94
    10.2800       126
    10.3000       102
    10.3200       104
    10.3400       102
    10.3600       112
    10.3800       100
    10.4000       104
    10.4200       116
    10.4400        96
    10.4600       112
    10.4800        98
    10.5000        98
    10.5200       114
    10.5400       102
    10.5600       120
    10.5800       102
    10.6000       112
    10.6200       138
    10.6400       104
    10.6600       116
    10.6800        96
    10.7000       120
    10.7200       116
    10.7400        96
    10.7600       102
    10.7800       122
    10.8000       106
    10.8200        98
    10.8400        98
    10.8600       102
    10.8800       118
    10.9000       100
    10.9200       102
    10.9400       110
    10.9600       116
    10.9800        82
    11.0000       104
    11.0200       100
    11.0400       110
    11.0600       100
    11.0800       112
    11.1000       108
    11.1200        98
    11.1400       118
    11.1600       106
    11.1800       108
    11.2000       104
    11.2200       110
    11.2400       100
    11.2600       128
    11.2800       102
    11.3000       122
    11.3200       104
    11.3400       102
    11.3600       100
    11.3800       110
    11.4000        90
    11.4200       108
    11.4400        84
    11.4600       124
    11.4800       112
    11.5000       116
    11.5200       104
    11.5400       128
    11.5600       104
    11.5800       118
    11.6000       128
    11.6200       134
    11.6400       138
    11.6600       124
    11.6800       114
    11.7000       122
    11.7200       150
    11.7400       160
    11.7600       148
    11.7800       156
    11.8000       184
    11.8200       168
    11.8400       178
    11.8600       160
    11.8800       178
    11.9000       184
    11.9200       192
    11.9400       244
    11.9600       244
    11.9800       260
    12.0000       258
    12.0200       272
    12.0400       318
    12.0600       334
    12.0800       364
    12.1000       390
    12.1200       406
    12.1400       474
    12.1600       498
    12.1800       562
    12.2000       590
    12.2200       708
    12.2400       716
    12.2600       766
    12.2800       878
    12.3000       900
    12.3200       924
    12.3400       844
    12.3600       816
    12.3800       784
    12.4000       626
    12.4200       480
    12.4400       444
    12.4600       336
    12.4800       284
    12.5000       248
    12.5200       226
    12.5400       216
    12.5600       188
    12.5800       154
    12.6000       138
    12.6200       134
    12.6400       134
    12.6600       140
    12.6800       106
    12.7000       110
    12.7200       122
    12.7400        88
    12.7600        94
    12.7800        98
    12.8000        84
    12.8200        84
    12.8400        82
    12.8600        88
    12.8800        74
    12.9000        92
    12.9200        88
    12.9400        86
    12.9600        82
    12.9800        74
    13.0000        74
    13.0200        58
    13.0400        96
    13.0600        80
    13.0800        74
    13.1000        72
    13.1200        58
    13.1400        86
    13.1600        70
    13.1800        68
    13.2000        70
    13.2200        70
    13.2400        74
    13.2600        76
    13.2800        76
    13.3000        76
    13.3200        68
    13.3400        72
    13.3600        74
    13.3800        74
    13.4000        64
    13.4200        78
    13.4400        68
    13.4600        86
    13.4800        68
    13.5000        64
    13.5200        68
    13.5400        74
    13.5600        68
    13.5800        44
    13.6000        84
    13.6200        68
    13.6400        64
    13.6600        76
    13.6800        80
    13.7000        88
    13.7200        60
    13.7400        54
    13.7600        72
    13.7800        68
    13.8000        98
    13.8200        64
    13.8400        66
    13.8600        68
    13.8800        58
    13.9000        76
    13.9200        64
    13.9400        72
    13.9600        58
    13.9800        54
    14.0000        84
    14.0200        76
    14.0400        70
    14.0600        46
    14.0800        78
    14.1000        60
    14.1200        56
    14.1400        46
    14.1600        50
    14.1800        54
    14.2000        72
    14.2200        72
    14.2400        48
    14.2600        52
    14.2800        60
    14.3000        54
    14.3200        54
    14.3400        78
    14.3600        58
    14.3800        72
    14.4000        60
    14.4200        68
    14.4400        68
    14.4600        62
    14.4800        68
    14.5000        64
    14.5200        70
    14.5400        72
    14.5600        72
    14.5800        62
    14.6000        62
    14.6200        58
    14.6400        78
    14.6600        62
    14.6800        60
    14.7000        60
    14.7200        66
    14.7400        86
    14.7600        66
    14.7800        70
    14.8000        56
    14.8200        64
    14.8400        62
    14.8600        70
    14.8800        48
    14.9000        64
    14.9200        62
    14.9400        62
    14.9600        62
    14.9800        64
    15.0000        60
    15.0200        80
    15.0400        60
    15.0600        74
    15.0800        72
    15.1000        62
    15.1200        52
    15.1400        60
    15.1600        58
    15.1800        76
    15.2000        50
    15.2200        64
    15.2400        68
    15.2600        64
    15.2800        52
    15.3000        72
    15.3200        64
    15.3400        68
    15.3600        52
    15.3800        64
    15.4000        44
    15.4200        66
    15.4400        52
    15.4600        68
    15.4800        62
    15.5000        72
    15.5200        66
    15.5400        34
    15.5600        58
    15.5800        58
    15.6000        58
    15.6200        54
    15.6400        78
    15.6600        68
    15.6800        70
    15.7000        70
    15.7200        56
    15.7400        48
    15.7600        72
    15.7800        66
    15.8000        58
    15.8200        56
    15.8400        60
    15.8600        64
    15.8800        72
    15.9000        74
    15.9200        52
    15.9400        66
    15.9600        64
    15.9800        60
    16.0000        62
    16.0200        72
    16.0400        58
    16.0600        46
    16.0800        58
    16.1000        64
    16.1200        62
    16.1400        54
    16.1600        54
    16.1800        62
    16.2000        54
    16.2200        64
    16.2400        62
    16.2600        64
    16.2800        70
    16.3000        66
    16.3200        70
    16.3400        70
    16.3600        54
    16.3800        70
    16.4000        64
    16.4200        60
    16.4400        62
    16.4600        66
    16.4800        66
    16.5000        66
    16.5200        76
    16.5400        64
    16.5600        68
    16.5800        68
    16.6000        64
    16.6200        52
    16.6400        40
    16.6600        74
    16.6800        70
    16.7000        60
    16.7200        64
    16.7400        68
    16.7600        68
    16.7800        72
    16.8000        62
    16.8200        64
    16.8400        68
    16.8600        66
    16.8800        58
    16.9000        52
    16.9200        64
    16.9400        54
    16.9600        70
    16.9800        58
    17.0000        56
    17.0200        58
    17.0400        46
    17.0600        48
    17.0800        62
    17.1000        66
    17.1200        74
    17.1400        66
    17.1600        72
    17.1800        72
    17.2000        76
    17.2200        60
    17.2400        64
    17.2600        60
    17.2800        60
    17.3000        74
    17.3200        66
    17.3400        56
    17.3600        84
    17.3800        68
    17.4000        80
    17.4200        54
    17.4400        80
    17.4600        68
    17.4800        60
    17.5000        58
    17.5200        70
    17.5400        60
    17.5600        84
    17.5800        68
    17.6000        78
    17.6200        64
    17.6400        84
    17.6600        74
    17.6800        66
    17.7000        92
    17.7200        86
    17.7400        72
    17.7600        66
    17.7800        72
    17.8000        72
    17.8200        86
    17.8400        80
    17.8600       104
    17.8800       104
    17.9000       122
    17.9200       104
    17.9400       128
    17.9600       110
    17.9800        90
    18.0000       118
    18.0200       122
    18.0400       126
    18.0600       106
    18.0800       128
    18.1000       124
    18.1200       138
    18.1400       158
    18.1600       150
    18.1800       202
    18.2000       234
    18.2200       190
    18.2400       240
    18.2600       236
    18.2800       296
    18.3000       314
    18.3200       308
    18.3400       368
    18.3600       402
    18.3800       484
    18.4000       530
    18.4200       602
    18.4400       668
    18.4600       780
    18.4800       806
    18.5000       936
    18.5200      1002
    18.5400      1068
    18.5600      1136
    18.5800      1116
    18.6000       988
    18.6200       922
    18.6400       860
    18.6600       698
    18.6800       556
    18.7000       502
    18.7200       448
    18.7400       344
    18.7600       302
    18.7800       268
    18.8000       236
    18.8200       214
    18.8400       198
    18.8600       206
    18.8800       176
    18.9000       162
    18.9200       148
    18.9400       150
    18.9600       156
    18.9800       138
    19.0000       174
    19.0200       172
    19.0400       194
    19.0600       222
    19.0800       216
    19.1000       236
    19.1200       266
    19.1400       280
    19.1600       286
    19.1800       324
    19.2000       292
    19.2200       286
    19.2400       260
    19.2600       266
    19.2800       272
    19.3000       220
    19.3200       246
    19.3400       230
    19.3600       222
    19.3800       236
    19.4000       204
    19.4200       206
    19.4400       216
    19.4600       210
    19.4800       198
    19.5000       202
    19.5200       174
    19.5400       186
    19.5600       212
    19.5800       170
    19.6000       188
    19.6200       178
    19.6400       168
    19.6600       174
    19.6800       176
    19.7000       178
    19.7200       146
    19.7400       172
    19.7600       160
    19.7800       146
    19.8000       180
    19.8200       134
    19.8400       146
    19.8600       138
    19.8800       132
    19.9000       126
    19.9200       124
    19.9400       130
    19.9600       146
    19.9800       104
    20.0000       124
    20.0200       134
    20.0400       136
    20.0600       136
    20.0800       110
    20.1000       142
    20.1200       122
    20.1400       118
    20.1600        86
    20.1800        98
    20.2000       112
    20.2200       118
    20.2400        96
    20.2600       104
    20.2800       112
    20.3000       106
    20.3200       108
    20.3400       112
    20.3600       114
