/////////////////////////////////////////////////////////////////////////////////
/// Profile Data Ascii Dump (XRD)                                             ///
/////////////////////////////////////////////////////////////////////////////////

  Group     : Swayze
  Data      : GDS108
  File Name : GDS108.RAW

# Profile Datafile
          comment             = Muscovite 
          date & time         = 08-04-29 06:41:57 

# Measurement Condition
    X-ray tube
          target              = Cu 
          voltage             = 40.0 (kV)
          current             = 30.0 (mA)
    Slits
          divergence slit     = 2.00000 (deg) 
          scatter slit        = 2.00000 (deg) 
          receiving slit      = 0.15000 (mm)  
    Scanning
          drive axis          = Theta-2Theta 
          scan range          =    4.000 -   65.000 
          scan mode           = Continuous Scan 
          scan speed          =   2.0000 (deg/min) 
          sampling pitch      =   0.0200 (deg) 
          preset time         =   0.60 (sec) 

# Data      [ Total No. = 3051 ]
  <2Theta>   <   I   >
     4.0000       188
     4.0200       206
     4.0400       218
     4.0600       222
     4.0800       184
     4.1000       228
     4.1200       214
     4.1400       200
     4.1600       202
     4.1800       168
     4.2000       172
     4.2200       186
     4.2400       208
     4.2600       208
     4.2800       184
     4.3000       198
     4.3200       166
     4.3400       184
     4.3600       186
     4.3800       184
     4.4000       202
     4.4200       192
     4.4400       218
     4.4600       208
     4.4800       196
     4.5000       186
     4.5200       190
     4.5400       152
     4.5600       168
     4.5800       180
     4.6000       180
     4.6200       192
     4.6400       206
     4.6600       168
     4.6800       182
     4.7000       164
     4.7200       184
     4.7400       150
     4.7600       160
     4.7800       192
     4.8000       152
     4.8200       152
     4.8400       160
     4.8600       182
     4.8800       188
     4.9000       178
     4.9200       176
     4.9400       160
     4.9600       164
     4.9800       180
     5.0000       158
     5.0200       198
     5.0400       156
     5.0600       176
     5.0800       198
     5.1000       160
     5.1200       170
     5.1400       168
     5.1600       200
     5.1800       184
     5.2000       160
     5.2200       178
     5.2400       182
     5.2600       158
     5.2800       166
     5.3000       172
     5.3200       188
     5.3400       174
     5.3600       154
     5.3800       166
     5.4000       154
     5.4200       160
     5.4400       180
     5.4600       174
     5.4800       178
     5.5000       152
     5.5200       182
     5.5400       168
     5.5600       168
     5.5800       168
     5.6000       186
     5.6200       154
     5.6400       174
     5.6600       156
     5.6800       168
     5.7000       158
     5.7200       190
     5.7400       158
     5.7600       190
     5.7800       174
     5.8000       178
     5.8200       170
     5.8400       218
     5.8600       190
     5.8800       174
     5.9000       190
     5.9200       178
     5.9400       186
     5.9600       194
     5.9800       172
     6.0000       194
     6.0200       182
     6.0400       172
     6.0600       170
     6.0800       146
     6.1000       154
     6.1200       188
     6.1400       154
     6.1600       154
     6.1800       170
     6.2000       170
     6.2200       178
     6.2400       166
     6.2600       162
     6.2800       164
     6.3000       158
     6.3200       158
     6.3400       194
     6.3600       144
     6.3800       162
     6.4000       134
     6.4200       162
     6.4400       146
     6.4600       136
     6.4800       130
     6.5000       150
     6.5200       136
     6.5400       128
     6.5600       170
     6.5800       158
     6.6000       122
     6.6200       122
     6.6400       160
     6.6600       126
     6.6800       152
     6.7000       140
     6.7200       160
     6.7400       132
     6.7600       142
     6.7800       136
     6.8000       146
     6.8200       134
     6.8400       138
     6.8600       136
     6.8800       144
     6.9000       150
     6.9200       118
     6.9400       144
     6.9600       134
     6.9800       136
     7.0000       148
     7.0200       136
     7.0400       142
     7.0600       138
     7.0800       108
     7.1000       140
     7.1200       142
     7.1400       124
     7.1600       134
     7.1800       124
     7.2000       132
     7.2200       130
     7.2400       114
     7.2600       112
     7.2800       138
     7.3000       158
     7.3200       140
     7.3400       128
     7.3600       122
     7.3800       128
     7.4000       124
     7.4200       124
     7.4400       134
     7.4600       128
     7.4800       140
     7.5000       114
     7.5200       122
     7.5400       116
     7.5600       114
     7.5800       156
     7.6000       126
     7.6200       132
     7.6400       136
     7.6600       126
     7.6800       132
     7.7000       120
     7.7200       124
     7.7400       120
     7.7600       124
     7.7800       130
     7.8000       132
     7.8200       148
     7.8400       150
     7.8600       132
     7.8800       116
     7.9000       150
     7.9200       126
     7.9400       144
     7.9600       146
     7.9800       140
     8.0000       136
     8.0200       146
     8.0400       148
     8.0600       164
     8.0800       140
     8.1000       170
     8.1200       154
     8.1400       170
     8.1600       158
     8.1800       160
     8.2000       164
     8.2200       140
     8.2400       162
     8.2600       164
     8.2800       176
     8.3000       176
     8.3200       162
     8.3400       162
     8.3600       198
     8.3800       200
     8.4000       190
     8.4200       238
     8.4400       244
     8.4600       246
     8.4800       286
     8.5000       272
     8.5200       292
     8.5400       344
     8.5600       348
     8.5800       376
     8.6000       442
     8.6200       446
     8.6400       502
     8.6600       532
     8.6800       662
     8.7000       700
     8.7200       878
     8.7400      1102
     8.7600      1326
     8.7800      1678
     8.8000      2208
     8.8200      2878
     8.8400      3546
     8.8600      3818
     8.8800      3436
     8.9000      2492
     8.9200      1640
     8.9400      1016
     8.9600       638
     8.9800       392
     9.0000       298
     9.0200       286
     9.0400       188
     9.0600       196
     9.0800       216
     9.1000       174
     9.1200       168
     9.1400       164
     9.1600       148
     9.1800       158
     9.2000       134
     9.2200       110
     9.2400       120
     9.2600       132
     9.2800       124
     9.3000       122
     9.3200       118
     9.3400       120
     9.3600       130
     9.3800       122
     9.4000       122
     9.4200       120
     9.4400       112
     9.4600       128
     9.4800       130
     9.5000       134
     9.5200       102
     9.5400       122
     9.5600       132
     9.5800       112
     9.6000       114
     9.6200       106
     9.6400       108
     9.6600       110
     9.6800       122
     9.7000       116
     9.7200       110
     9.7400       108
     9.7600       122
     9.7800       102
     9.8000       120
     9.8200       118
     9.8400       120
     9.8600       106
     9.8800       144
     9.9000       100
     9.9200       110
     9.9400       114
     9.9600       116
     9.9800       100
    10.0000       108
    10.0200       100
    10.0400       102
    10.0600        90
    10.0800       120
    10.1000        84
    10.1200        92
    10.1400        94
    10.1600       102
    10.1800        92
    10.2000       112
    10.2200        98
    10.2400       102
    10.2600        90
    10.2800       100
    10.3000       104
    10.3200        98
    10.3400       102
    10.3600        94
    10.3800        98
    10.4000       122
    10.4200       108
    10.4400       106
    10.4600        80
    10.4800        94
    10.5000       104
    10.5200        98
    10.5400        80
    10.5600        92
    10.5800        92
    10.6000       116
    10.6200        98
    10.6400       102
    10.6600       102
    10.6800        92
    10.7000        94
    10.7200        98
    10.7400        84
    10.7600       114
    10.7800        92
    10.8000       110
    10.8200        82
    10.8400       120
    10.8600       108
    10.8800       100
    10.9000       114
    10.9200        88
    10.9400        86
    10.9600        94
    10.9800       108
    11.0000        88
    11.0200        96
    11.0400       102
    11.0600        84
    11.0800        78
    11.1000        74
    11.1200       100
    11.1400        86
    11.1600        96
    11.1800       106
    11.2000        88
    11.2200        58
    11.2400        92
    11.2600        88
    11.2800       100
    11.3000        86
    11.3200        88
    11.3400       104
    11.3600        84
    11.3800        88
    11.4000        70
    11.4200        90
    11.4400        82
    11.4600        94
    11.4800       118
    11.5000        76
    11.5200        94
    11.5400        64
    11.5600        80
    11.5800        88
    11.6000        84
    11.6200        88
    11.6400        72
    11.6600       116
    11.6800       100
    11.7000        82
    11.7200        90
    11.7400        88
    11.7600        74
    11.7800       102
    11.8000        86
    11.8200        74
    11.8400        94
    11.8600        84
    11.8800        78
    11.9000        86
    11.9200        90
    11.9400        90
    11.9600        70
    11.9800        78
    12.0000        72
    12.0200        88
    12.0400        82
    12.0600        96
    12.0800        78
    12.1000        76
    12.1200        98
    12.1400        94
    12.1600        94
    12.1800        88
    12.2000       100
    12.2200       102
    12.2400        84
    12.2600       100
    12.2800       110
    12.3000        94
    12.3200       138
    12.3400       106
    12.3600       108
    12.3800       112
    12.4000        88
    12.4200        90
    12.4400        84
    12.4600        96
    12.4800       100
    12.5000       112
    12.5200        88
    12.5400        84
    12.5600        68
    12.5800        90
    12.6000        70
    12.6200        84
    12.6400        76
    12.6600        64
    12.6800        72
    12.7000        86
    12.7200        82
    12.7400        92
    12.7600        92
    12.7800        82
    12.8000        82
    12.8200        72
    12.8400        74
    12.8600        66
    12.8800        72
    12.9000        58
    12.9200        80
    12.9400        80
    12.9600        84
    12.9800        78
    13.0000        66
    13.0200        68
    13.0400        48
    13.0600        74
    13.0800        72
    13.1000        76
    13.1200        78
    13.1400        80
    13.1600        64
    13.1800        62
    13.2000        76
    13.2200        78
    13.2400        66
    13.2600        60
    13.2800        64
    13.3000        86
    13.3200        84
    13.3400        74
    13.3600        84
    13.3800        76
    13.4000        94
    13.4200        90
    13.4400        72
    13.4600        88
    13.4800        74
    13.5000        86
    13.5200        74
    13.5400        74
    13.5600        58
    13.5800        54
    13.6000        60
    13.6200        50
    13.6400        64
    13.6600        82
    13.6800        78
    13.7000        60
    13.7200        66
    13.7400        66
    13.7600        80
    13.7800        66
    13.8000        64
    13.8200        66
    13.8400        76
    13.8600        56
    13.8800        76
    13.9000        66
    13.9200        80
    13.9400        58
    13.9600        78
    13.9800        62
    14.0000        72
    14.0200        66
    14.0400        60
    14.0600        70
    14.0800        66
    14.1000        82
    14.1200        66
    14.1400        66
    14.1600        50
    14.1800        50
    14.2000        74
    14.2200        74
    14.2400        68
    14.2600        78
    14.2800        70
    14.3000        72
    14.3200        76
    14.3400        62
    14.3600        74
    14.3800        48
    14.4000        78
    14.4200        76
    14.4400        68
    14.4600        62
    14.4800        72
    14.5000        58
    14.5200        68
    14.5400        76
    14.5600        68
    14.5800        56
    14.6000        80
    14.6200        72
    14.6400        60
    14.6600        68
    14.6800        60
    14.7000        54
    14.7200        60
    14.7400        68
    14.7600        58
    14.7800        58
    14.8000        50
    14.8200        60
    14.8400        50
    14.8600        62
    14.8800        70
    14.9000        58
    14.9200        62
    14.9400        46
    14.9600        62
    14.9800        48
    15.0000        70
    15.0200        58
    15.0400        70
    15.0600        64
    15.0800        68
    15.1000        56
    15.1200        50
    15.1400        48
    15.1600        66
    15.1800        70
    15.2000        66
    15.2200        70
    15.2400        68
    15.2600        58
    15.2800        70
    15.3000        76
    15.3200        62
    15.3400        56
    15.3600        66
    15.3800        52
    15.4000        60
    15.4200        62
    15.4400        54
    15.4600        60
    15.4800        62
    15.5000        66
    15.5200        46
    15.5400        74
    15.5600        46
    15.5800        60
    15.6000        54
    15.6200        74
    15.6400        62
    15.6600        48
    15.6800        72
    15.7000        50
    15.7200        52
    15.7400        52
    15.7600        52
    15.7800        62
    15.8000        44
    15.8200        50
    15.8400        54
    15.8600        78
    15.8800        60
    15.9000        56
    15.9200        62
    15.9400        62
    15.9600        66
    15.9800        70
    16.0000        74
    16.0200        70
    16.0400        56
    16.0600        62
    16.0800        46
    16.1000        58
    16.1200        54
    16.1400        58
    16.1600        74
    16.1800        54
    16.2000        58
    16.2200        60
    16.2400        56
    16.2600        52
    16.2800        60
    16.3000        56
    16.3200        72
    16.3400        60
    16.3600        68
    16.3800        62
    16.4000        52
    16.4200        56
    16.4400        58
    16.4600        64
    16.4800        62
    16.5000        64
    16.5200        50
    16.5400        70
    16.5600        76
    16.5800        72
    16.6000        60
    16.6200        64
    16.6400        38
    16.6600        60
    16.6800        68
    16.7000        74
    16.7200        56
    16.7400        58
    16.7600        60
    16.7800        62
    16.8000        64
    16.8200        70
    16.8400        68
    16.8600        78
    16.8800        70
    16.9000        76
    16.9200        58
    16.9400        42
    16.9600        58
    16.9800        52
    17.0000        64
    17.0200        66
    17.0400        74
    17.0600        60
    17.0800        78
    17.1000        82
    17.1200        66
    17.1400        74
    17.1600        58
    17.1800        74
    17.2000        80
    17.2200        90
    17.2400        76
    17.2600        72
    17.2800        80
    17.3000       116
    17.3200       112
    17.3400       122
    17.3600       122
    17.3800       154
    17.4000       130
    17.4200       148
    17.4400       150
    17.4600       174
    17.4800       196
    17.5000       192
    17.5200       250
    17.5400       260
    17.5600       330
    17.5800       362
    17.6000       482
    17.6200       530
    17.6400       670
    17.6600       962
    17.6800      1266
    17.7000      1698
    17.7200      2024
    17.7400      2316
    17.7600      2248
    17.7800      1960
    17.8000      1530
    17.8200      1018
    17.8400       672
    17.8600       402
    17.8800       290
    17.9000       188
    17.9200       150
    17.9400       134
    17.9600       122
    17.9800       116
    18.0000       116
    18.0200       106
    18.0400        84
    18.0600        86
    18.0800        66
    18.1000        82
    18.1200        56
    18.1400        72
    18.1600        62
    18.1800        66
    18.2000        70
    18.2200        70
    18.2400        54
    18.2600        66
    18.2800        72
    18.3000        54
    18.3200        62
    18.3400        72
    18.3600        64
    18.3800        70
    18.4000        64
    18.4200        68
    18.4400        64
    18.4600        70
    18.4800        76
    18.5000        70
    18.5200       102
    18.5400        74
    18.5600        68
    18.5800        72
    18.6000        82
    18.6200        80
    18.6400        72
    18.6600        58
    18.6800        72
    18.7000        66
    18.7200        50
    18.7400        56
    18.7600        44
    18.7800        48
    18.8000        50
    18.8200        62
    18.8400        50
    18.8600        58
    18.8800        66
    18.9000        56
    18.9200        56
    18.9400        44
    18.9600        56
    18.9800        64
    19.0000        62
    19.0200        60
    19.0400        52
    19.0600        62
    19.0800        54
    19.1000        66
    19.1200        40
    19.1400        54
    19.1600        52
    19.1800        58
    19.2000        50
    19.2200        56
    19.2400        54
    19.2600        54
    19.2800        56
    19.3000        66
    19.3200        54
    19.3400        50
    19.3600        62
    19.3800        58
    19.4000        54
    19.4200        48
    19.4400        58
    19.4600        48
    19.4800        56
    19.5000        62
    19.5200        52
    19.5400        60
    19.5600        60
    19.5800        64
    19.6000        56
    19.6200        64
    19.6400        76
    19.6600        76
    19.6800        72
    19.7000        90
    19.7200       106
    19.7400       100
    19.7600        96
    19.7800        88
    19.8000        86
    19.8200       102
    19.8400       108
    19.8600       114
    19.8800       102
    19.9000        84
    19.9200        84
    19.9400       102
    19.9600        84
    19.9800        80
    20.0000        78
    20.0200        82
    20.0400        68
    20.0600        78
    20.0800        60
    20.1000        60
    20.1200        60
    20.1400        56
    20.1600        56
    20.1800        64
    20.2000        50
    20.2200        50
    20.2400        56
    20.2600        62
    20.2800        66
    20.3000        62
    20.3200        50
    20.3400        70
    20.3600        52
    20.3800        46
