/////////////////////////////////////////////////////////////////////////////////
/// Profile Data Ascii Dump (XRD)                                             ///
/////////////////////////////////////////////////////////////////////////////////

  Group     : Swayze
  Data      : GDS2
  File Name : GDS2.RAW

# Profile Datafile
          comment             = Clinoptilolite 
          date & time         = 08-03-24 06:47:01 

# Measurement Condition
    X-ray tube
          target              = Cu 
          voltage             = 40.0 (kV)
          current             = 30.0 (mA)
    Slits
          divergence slit     = 2.00000 (deg) 
          scatter slit        = 2.00000 (deg) 
          receiving slit      = 0.15000 (mm)  
    Scanning
          drive axis          = Theta-2Theta 
          scan range          =    4.000 -   65.000 
          scan mode           = Continuous Scan 
          scan speed          =   2.0000 (deg/min) 
          sampling pitch      =   0.0200 (deg) 
          preset time         =   0.60 (sec) 

# Data      [ Total No. = 3051 ]
  <2Theta>   <   I   >
     4.0000       182
     4.0200       186
     4.0400       214
     4.0600       172
     4.0800       186
     4.1000       212
     4.1200       204
     4.1400       186
     4.1600       172
     4.1800       186
     4.2000       208
     4.2200       180
     4.2400       168
     4.2600       186
     4.2800       168
     4.3000       180
     4.3200       168
     4.3400       186
     4.3600       190
     4.3800       188
     4.4000       174
     4.4200       174
     4.4400       168
     4.4600       148
     4.4800       202
     4.5000       188
     4.5200       180
     4.5400       176
     4.5600       154
     4.5800       178
     4.6000       186
     4.6200       162
     4.6400       206
     4.6600       182
     4.6800       184
     4.7000       182
     4.7200       172
     4.7400       174
     4.7600       170
     4.7800       184
     4.8000       196
     4.8200       162
     4.8400       166
     4.8600       158
     4.8800       186
     4.9000       178
     4.9200       164
     4.9400       152
     4.9600       156
     4.9800       168
     5.0000       204
     5.0200       164
     5.0400       148
     5.0600       184
     5.0800       158
     5.1000       162
     5.1200       156
     5.1400       148
     5.1600       162
     5.1800       184
     5.2000       178
     5.2200       152
     5.2400       176
     5.2600       182
     5.2800       168
     5.3000       156
     5.3200       168
     5.3400       190
     5.3600       166
     5.3800       178
     5.4000       190
     5.4200       148
     5.4400       168
     5.4600       156
     5.4800       150
     5.5000       180
     5.5200       160
     5.5400       166
     5.5600       142
     5.5800       180
     5.6000       156
     5.6200       188
     5.6400       188
     5.6600       146
     5.6800       158
     5.7000       162
     5.7200       160
     5.7400       180
     5.7600       160
     5.7800       176
     5.8000       156
     5.8200       164
     5.8400       174
     5.8600       174
     5.8800       158
     5.9000       154
     5.9200       174
     5.9400       152
     5.9600       158
     5.9800       184
     6.0000       166
     6.0200       164
     6.0400       160
     6.0600       182
     6.0800       204
     6.1000       158
     6.1200       168
     6.1400       132
     6.1600       156
     6.1800       156
     6.2000       160
     6.2200       170
     6.2400       156
     6.2600       166
     6.2800       148
     6.3000       146
     6.3200       130
     6.3400       144
     6.3600       156
     6.3800       150
     6.4000       150
     6.4200       128
     6.4400       172
     6.4600       144
     6.4800       170
     6.5000       152
     6.5200       142
     6.5400       164
     6.5600       146
     6.5800       120
     6.6000       140
     6.6200       146
     6.6400       150
     6.6600       124
     6.6800       118
     6.7000       144
     6.7200       144
     6.7400       122
     6.7600       140
     6.7800       124
     6.8000       134
     6.8200       132
     6.8400       152
     6.8600       136
     6.8800       154
     6.9000       128
     6.9200       134
     6.9400       134
     6.9600       136
     6.9800       130
     7.0000       126
     7.0200       124
     7.0400       128
     7.0600       118
     7.0800       138
     7.1000       156
     7.1200       124
     7.1400       122
     7.1600       138
     7.1800       114
     7.2000       138
     7.2200       142
     7.2400       142
     7.2600       134
     7.2800       116
     7.3000       144
     7.3200       126
     7.3400       156
     7.3600       144
     7.3800       126
     7.4000       146
     7.4200       112
     7.4400       122
     7.4600       134
     7.4800       120
     7.5000       130
     7.5200       142
     7.5400       118
     7.5600       112
     7.5800       116
     7.6000       112
     7.6200       120
     7.6400       130
     7.6600       122
     7.6800       118
     7.7000       136
     7.7200       100
     7.7400       112
     7.7600       122
     7.7800       142
     7.8000       120
     7.8200       148
     7.8400       130
     7.8600       124
     7.8800       126
     7.9000       128
     7.9200       120
     7.9400       128
     7.9600        96
     7.9800       118
     8.0000       132
     8.0200       114
     8.0400       120
     8.0600       122
     8.0800       138
     8.1000       124
     8.1200       134
     8.1400       124
     8.1600       136
     8.1800       134
     8.2000       124
     8.2200       120
     8.2400       142
     8.2600       134
     8.2800       118
     8.3000       110
     8.3200       122
     8.3400       118
     8.3600       138
     8.3800       128
     8.4000       126
     8.4200       140
     8.4400       122
     8.4600       114
     8.4800       132
     8.5000       114
     8.5200       136
     8.5400       112
     8.5600       124
     8.5800       124
     8.6000       124
     8.6200       124
     8.6400       106
     8.6600       136
     8.6800       130
     8.7000       136
     8.7200       118
     8.7400       148
     8.7600       130
     8.7800       138
     8.8000       124
     8.8200       134
     8.8400       118
     8.8600       112
     8.8800       116
     8.9000       124
     8.9200       122
     8.9400       126
     8.9600       120
     8.9800       156
     9.0000       120
     9.0200       136
     9.0400       122
     9.0600       132
     9.0800       112
     9.1000       148
     9.1200       156
     9.1400       154
     9.1600       128
     9.1800       150
     9.2000       148
     9.2200       140
     9.2400       138
     9.2600       138
     9.2800       162
     9.3000       184
     9.3200       164
     9.3400       156
     9.3600       172
     9.3800       174
     9.4000       186
     9.4200       202
     9.4400       170
     9.4600       216
     9.4800       240
     9.5000       196
     9.5200       222
     9.5400       266
     9.5600       232
     9.5800       266
     9.6000       268
     9.6200       306
     9.6400       336
     9.6600       336
     9.6800       420
     9.7000       432
     9.7200       534
     9.7400       536
     9.7600       644
     9.7800       696
     9.8000       716
     9.8200       724
     9.8400       692
     9.8600       624
     9.8800       472
     9.9000       344
     9.9200       256
     9.9400       234
     9.9600       168
     9.9800       140
    10.0000       138
    10.0200       142
    10.0400       132
    10.0600       162
    10.0800       128
    10.1000       130
    10.1200       126
    10.1400       124
    10.1600       142
    10.1800       114
    10.2000       124
    10.2200       122
    10.2400       108
    10.2600       118
    10.2800       116
    10.3000       106
    10.3200       112
    10.3400       122
    10.3600       100
    10.3800       112
    10.4000       112
    10.4200       102
    10.4400       128
    10.4600       108
    10.4800       122
    10.5000       134
    10.5200       118
    10.5400       116
    10.5600       106
    10.5800       142
    10.6000       130
    10.6200       132
    10.6400       146
    10.6600       122
    10.6800       136
    10.7000       124
    10.7200       132
    10.7400       154
    10.7600       172
    10.7800       150
    10.8000       150
    10.8200       148
    10.8400       178
    10.8600       202
    10.8800       178
    10.9000       214
    10.9200       220
    10.9400       222
    10.9600       224
    10.9800       284
    11.0000       330
    11.0200       338
    11.0400       364
    11.0600       472
    11.0800       528
    11.1000       480
    11.1200       426
    11.1400       328
    11.1600       252
    11.1800       192
    11.2000       188
    11.2200       164
    11.2400       112
    11.2600       128
    11.2800        90
    11.3000       106
    11.3200       122
    11.3400       112
    11.3600       106
    11.3800       114
    11.4000        90
    11.4200        78
    11.4400        98
    11.4600        90
    11.4800        90
    11.5000        82
    11.5200       100
    11.5400       126
    11.5600        86
    11.5800        82
    11.6000        92
    11.6200        88
    11.6400        92
    11.6600        78
    11.6800        98
    11.7000        82
    11.7200        88
    11.7400        88
    11.7600        86
    11.7800        78
    11.8000        78
    11.8200        90
    11.8400        78
    11.8600        94
    11.8800        90
    11.9000        82
    11.9200        86
    11.9400        90
    11.9600        76
    11.9800       100
    12.0000        92
    12.0200        82
    12.0400        66
    12.0600        84
    12.0800       104
    12.1000        86
    12.1200        96
    12.1400        98
    12.1600        84
    12.1800       104
    12.2000        80
    12.2200        88
    12.2400        80
    12.2600        98
    12.2800        80
    12.3000        74
    12.3200        78
    12.3400        78
    12.3600       100
    12.3800       120
    12.4000        88
    12.4200        76
    12.4400        96
    12.4600        84
    12.4800        88
    12.5000        84
    12.5200        86
    12.5400       110
    12.5600        90
    12.5800        88
    12.6000        94
    12.6200       110
    12.6400       100
    12.6600       108
    12.6800        92
    12.7000       122
    12.7200       124
    12.7400       102
    12.7600       116
    12.7800       142
    12.8000       134
    12.8200       142
    12.8400       140
    12.8600       164
    12.8800       160
    12.9000       168
    12.9200       146
    12.9400       166
    12.9600       172
    12.9800       174
    13.0000       176
    13.0200       170
    13.0400       138
    13.0600       122
    13.0800       114
    13.1000       102
    13.1200        98
    13.1400        88
    13.1600       120
    13.1800       102
    13.2000       112
    13.2200       118
    13.2400       104
    13.2600       118
    13.2800       100
    13.3000       104
    13.3200        90
    13.3400       112
    13.3600        76
    13.3800        82
    13.4000        82
    13.4200        84
    13.4400        82
    13.4600        90
    13.4800        86
    13.5000        62
    13.5200        66
    13.5400        96
    13.5600        78
    13.5800        82
    13.6000        76
    13.6200       102
    13.6400        96
    13.6600       106
    13.6800        72
    13.7000       102
    13.7200        92
    13.7400        70
    13.7600        84
    13.7800        90
    13.8000        86
    13.8200        68
    13.8400        80
    13.8600        74
    13.8800        72
    13.9000        80
    13.9200        70
    13.9400        68
    13.9600        88
    13.9800        62
    14.0000        72
    14.0200        74
    14.0400        72
    14.0600        78
    14.0800        74
    14.1000        76
    14.1200        72
    14.1400        76
    14.1600        70
    14.1800        64
    14.2000        68
    14.2200        84
    14.2400        64
    14.2600        76
    14.2800        84
    14.3000        76
    14.3200        82
    14.3400        72
    14.3600        68
    14.3800        68
    14.4000        74
    14.4200        76
    14.4400        64
    14.4600        68
    14.4800        80
    14.5000        78
    14.5200        80
    14.5400        86
    14.5600        70
    14.5800        76
    14.6000        94
    14.6200        78
    14.6400        78
    14.6600       100
    14.6800        88
    14.7000        80
    14.7200        96
    14.7400        98
    14.7600       106
    14.7800       114
    14.8000       132
    14.8200       126
    14.8400       132
    14.8600       162
    14.8800       156
    14.9000       114
    14.9200       142
    14.9400       112
    14.9600        84
    14.9800        68
    15.0000        66
    15.0200        62
    15.0400        76
    15.0600        92
    15.0800        88
    15.1000        72
    15.1200        68
    15.1400        84
    15.1600        66
    15.1800        70
    15.2000        80
    15.2200        68
    15.2400        74
    15.2600        74
    15.2800        74
    15.3000        68
    15.3200        66
    15.3400        66
    15.3600        64
    15.3800        74
    15.4000        72
    15.4200        78
    15.4400        62
    15.4600        88
    15.4800        74
    15.5000        68
    15.5200        50
    15.5400        72
    15.5600        78
    15.5800        82
    15.6000        66
    15.6200        66
    15.6400        62
    15.6600        70
    15.6800        60
    15.7000        84
    15.7200        86
    15.7400        88
    15.7600        84
    15.7800        86
    15.8000        66
    15.8200        96
    15.8400        64
    15.8600        88
    15.8800        76
    15.9000        78
    15.9200        68
    15.9400        68
    15.9600        66
    15.9800        76
    16.0000        66
    16.0200        72
    16.0400        72
    16.0600        76
    16.0800        86
    16.1000        72
    16.1200        72
    16.1400        78
    16.1600        64
    16.1800        72
    16.2000        74
    16.2200        68
    16.2400        70
    16.2600        70
    16.2800        82
    16.3000        72
    16.3200        68
    16.3400        72
    16.3600        64
    16.3800        78
    16.4000        78
    16.4200        74
    16.4400        82
    16.4600        90
    16.4800        80
    16.5000        90
    16.5200        96
    16.5400        98
    16.5600        76
    16.5800        80
    16.6000       102
    16.6200       102
    16.6400       104
    16.6600        84
    16.6800       116
    16.7000        94
    16.7200       114
    16.7400       130
    16.7600       132
    16.7800       146
    16.8000       150
    16.8200       182
    16.8400       166
    16.8600       172
    16.8800       168
    16.9000       150
    16.9200       138
    16.9400       136
    16.9600       142
    16.9800       120
    17.0000       134
    17.0200       124
    17.0400       142
    17.0600       178
    17.0800       152
    17.1000       166
    17.1200       202
    17.1400       240
    17.1600       276
    17.1800       298
    17.2000       358
    17.2200       356
    17.2400       360
    17.2600       356
    17.2800       312
    17.3000       280
    17.3200       216
    17.3400       190
    17.3600       176
    17.3800       142
    17.4000       122
    17.4200       122
    17.4400       108
    17.4600       122
    17.4800       108
    17.5000       102
    17.5200        90
    17.5400        96
    17.5600        72
    17.5800        80
    17.6000        62
    17.6200        58
    17.6400        84
    17.6600        68
    17.6800        70
    17.7000        78
    17.7200        68
    17.7400        64
    17.7600        68
    17.7800        70
    17.8000        62
    17.8200        64
    17.8400        80
    17.8600        68
    17.8800        54
    17.9000        48
    17.9200        68
    17.9400        62
    17.9600        78
    17.9800        66
    18.0000        66
    18.0200        64
    18.0400        88
    18.0600        66
    18.0800        64
    18.1000        68
    18.1200        82
    18.1400        78
    18.1600        78
    18.1800        78
    18.2000        52
    18.2200        74
    18.2400        68
    18.2600        62
    18.2800        62
    18.3000        84
    18.3200        70
    18.3400        56
    18.3600        64
    18.3800        82
    18.4000        70
    18.4200        74
    18.4400        70
    18.4600        92
    18.4800        68
    18.5000        74
    18.5200        72
    18.5400        64
    18.5600        78
    18.5800        68
    18.6000        64
    18.6200        72
    18.6400        84
    18.6600        86
    18.6800        74
    18.7000        76
    18.7200        94
    18.7400        98
    18.7600        88
    18.7800       106
    18.8000       126
    18.8200       112
    18.8400       112
    18.8600       120
    18.8800       142
    18.9000       150
    18.9200       182
    18.9400       198
    18.9600       184
    18.9800       250
    19.0000       212
    19.0200       222
    19.0400       234
    19.0600       214
    19.0800       202
    19.1000       166
    19.1200       166
    19.1400       116
    19.1600       116
    19.1800        86
    19.2000        76
    19.2200        76
    19.2400        86
    19.2600        82
    19.2800        68
    19.3000        80
    19.3200        88
    19.3400        84
    19.3600        76
    19.3800        88
    19.4000        86
    19.4200        78
    19.4400        82
    19.4600        80
    19.4800        76
    19.5000        74
    19.5200        92
    19.5400        86
    19.5600        68
    19.5800        66
    19.6000        94
    19.6200        86
    19.6400        86
    19.6600       104
    19.6800        96
    19.7000        80
    19.7200        82
    19.7400        84
    19.7600        80
    19.7800        62
    19.8000        68
    19.8200        76
    19.8400       108
    19.8600        88
    19.8800        90
    19.9000        86
    19.9200        76
    19.9400        80
    19.9600        80
    19.9800        68
    20.0000        88
    20.0200        82
    20.0400        74
    20.0600       100
    20.0800        94
    20.1000        92
    20.1200       106
    20.1400       100
    20.1600       116
    20.1800       114
    20.2000       114
    20.2200       118
    20.2400       116
    20.2600       164
    20.2800       160
    20.3000       150
    20.3200       166
    20.3400       164
    20.3600       162
    20.3800       156
