/////////////////////////////////////////////////////////////////////////////////
/// Profile Data Ascii Dump (XRD)                                             ///
/////////////////////////////////////////////////////////////////////////////////

  Group     : Swayze
  Data      : GDS209
  File Name : GDS209.RAW

# Profile Datafile
          comment             = SynAluniteH30-200C 
          date & time         = 08-03-27 07:16:41 

# Measurement Condition
    X-ray tube
          target              = Cu 
          voltage             = 40.0 (kV)
          current             = 30.0 (mA)
    Slits
          divergence slit     = 2.00000 (deg) 
          scatter slit        = 2.00000 (deg) 
          receiving slit      = 0.15000 (mm)  
    Scanning
          drive axis          = Theta-2Theta 
          scan range          =    4.000 -   65.000 
          scan mode           = Continuous Scan 
          scan speed          =   2.0000 (deg/min) 
          sampling pitch      =   0.0200 (deg) 
          preset time         =   0.60 (sec) 

# Data      [ Total No. = 3051 ]
  <2Theta>   <   I   >
     4.0000       198
     4.0200       186
     4.0400       208
     4.0600       202
     4.0800       184
     4.1000       198
     4.1200       158
     4.1400       198
     4.1600       166
     4.1800       208
     4.2000       200
     4.2200       154
     4.2400       192
     4.2600       166
     4.2800       166
     4.3000       166
     4.3200       182
     4.3400       152
     4.3600       164
     4.3800       192
     4.4000       164
     4.4200       188
     4.4400       170
     4.4600       164
     4.4800       140
     4.5000       172
     4.5200       188
     4.5400       154
     4.5600       166
     4.5800       156
     4.6000       150
     4.6200       166
     4.6400       184
     4.6600       152
     4.6800       188
     4.7000       166
     4.7200       154
     4.7400       152
     4.7600       164
     4.7800       142
     4.8000       140
     4.8200       186
     4.8400       170
     4.8600       146
     4.8800       178
     4.9000       144
     4.9200       164
     4.9400       156
     4.9600       138
     4.9800       170
     5.0000       146
     5.0200       174
     5.0400       150
     5.0600       134
     5.0800       180
     5.1000       168
     5.1200       150
     5.1400       126
     5.1600       164
     5.1800       150
     5.2000       154
     5.2200       148
     5.2400       184
     5.2600       142
     5.2800       168
     5.3000       134
     5.3200       144
     5.3400       156
     5.3600       164
     5.3800       150
     5.4000       162
     5.4200       142
     5.4400       166
     5.4600       144
     5.4800       154
     5.5000       144
     5.5200       154
     5.5400       170
     5.5600       146
     5.5800       158
     5.6000       154
     5.6200       154
     5.6400       130
     5.6600       126
     5.6800       168
     5.7000       138
     5.7200       144
     5.7400       152
     5.7600       136
     5.7800       168
     5.8000       142
     5.8200       138
     5.8400       140
     5.8600       168
     5.8800       156
     5.9000       182
     5.9200       160
     5.9400       170
     5.9600       150
     5.9800       152
     6.0000       156
     6.0200       150
     6.0400       164
     6.0600       144
     6.0800       174
     6.1000       150
     6.1200       190
     6.1400       134
     6.1600       128
     6.1800       150
     6.2000       130
     6.2200       150
     6.2400       148
     6.2600       148
     6.2800       140
     6.3000       144
     6.3200       140
     6.3400       146
     6.3600       168
     6.3800       144
     6.4000       146
     6.4200       130
     6.4400       114
     6.4600       136
     6.4800       114
     6.5000       146
     6.5200       140
     6.5400       130
     6.5600       124
     6.5800       116
     6.6000       136
     6.6200       152
     6.6400       118
     6.6600       150
     6.6800       138
     6.7000       128
     6.7200       144
     6.7400       126
     6.7600       142
     6.7800       134
     6.8000       124
     6.8200       138
     6.8400       142
     6.8600       144
     6.8800       116
     6.9000       120
     6.9200       120
     6.9400       118
     6.9600       104
     6.9800       132
     7.0000       122
     7.0200       118
     7.0400       106
     7.0600       120
     7.0800       114
     7.1000       118
     7.1200       120
     7.1400       116
     7.1600       124
     7.1800       112
     7.2000       128
     7.2200       134
     7.2400       112
     7.2600       122
     7.2800       110
     7.3000       114
     7.3200       110
     7.3400       122
     7.3600       120
     7.3800       106
     7.4000       112
     7.4200       122
     7.4400       132
     7.4600       128
     7.4800       138
     7.5000       114
     7.5200       116
     7.5400       110
     7.5600       118
     7.5800       122
     7.6000        86
     7.6200       102
     7.6400       102
     7.6600       136
     7.6800       114
     7.7000       106
     7.7200       104
     7.7400       132
     7.7600       118
     7.7800       110
     7.8000        96
     7.8200       100
     7.8400       134
     7.8600       102
     7.8800       102
     7.9000       110
     7.9200       116
     7.9400       136
     7.9600       122
     7.9800       124
     8.0000       110
     8.0200       116
     8.0400       116
     8.0600       102
     8.0800       110
     8.1000       110
     8.1200       108
     8.1400       106
     8.1600       108
     8.1800       120
     8.2000       110
     8.2200       124
     8.2400        96
     8.2600       110
     8.2800       112
     8.3000       122
     8.3200       106
     8.3400       114
     8.3600       120
     8.3800       118
     8.4000       108
     8.4200       112
     8.4400       112
     8.4600       108
     8.4800       118
     8.5000        96
     8.5200       106
     8.5400       118
     8.5600       108
     8.5800        96
     8.6000       104
     8.6200        98
     8.6400       108
     8.6600       126
     8.6800       108
     8.7000        92
     8.7200       138
     8.7400       122
     8.7600       108
     8.7800       104
     8.8000       118
     8.8200       132
     8.8400       110
     8.8600       106
     8.8800       110
     8.9000       112
     8.9200       108
     8.9400       112
     8.9600       100
     8.9800       118
     9.0000       122
     9.0200       112
     9.0400       122
     9.0600       112
     9.0800       110
     9.1000       120
     9.1200       108
     9.1400       126
     9.1600       124
     9.1800       112
     9.2000       128
     9.2200       100
     9.2400       130
     9.2600       110
     9.2800       102
     9.3000       130
     9.3200       114
     9.3400       108
     9.3600       130
     9.3800       116
     9.4000       104
     9.4200        96
     9.4400       110
     9.4600       120
     9.4800       100
     9.5000       108
     9.5200       116
     9.5400       110
     9.5600       100
     9.5800       104
     9.6000       124
     9.6200       112
     9.6400       108
     9.6600        88
     9.6800       104
     9.7000       116
     9.7200        98
     9.7400        94
     9.7600       104
     9.7800       130
     9.8000       124
     9.8200       138
     9.8400       104
     9.8600       116
     9.8800       128
     9.9000       114
     9.9200       114
     9.9400       132
     9.9600       122
     9.9800        98
    10.0000       110
    10.0200       106
    10.0400       112
    10.0600       112
    10.0800       106
    10.1000       108
    10.1200        94
    10.1400       142
    10.1600       110
    10.1800       100
    10.2000       100
    10.2200       108
    10.2400       124
    10.2600       120
    10.2800       104
    10.3000       100
    10.3200        96
    10.3400        94
    10.3600        98
    10.3800       106
    10.4000        78
    10.4200       126
    10.4400        96
    10.4600        92
    10.4800        98
    10.5000        94
    10.5200       114
    10.5400       104
    10.5600        96
    10.5800       110
    10.6000        80
    10.6200        96
    10.6400        92
    10.6600       110
    10.6800       106
    10.7000        90
    10.7200        94
    10.7400        98
    10.7600        90
    10.7800        90
    10.8000       100
    10.8200        92
    10.8400       102
    10.8600       104
    10.8800        80
    10.9000        96
    10.9200        84
    10.9400        90
    10.9600        80
    10.9800        80
    11.0000        94
    11.0200        86
    11.0400        98
    11.0600        96
    11.0800       100
    11.1000        88
    11.1200        92
    11.1400       102
    11.1600        92
    11.1800        88
    11.2000        78
    11.2200        90
    11.2400        72
    11.2600        84
    11.2800        86
    11.3000        74
    11.3200        68
    11.3400        62
    11.3600        80
    11.3800       104
    11.4000        72
    11.4200        62
    11.4400        78
    11.4600        82
    11.4800        86
    11.5000        82
    11.5200        74
    11.5400        86
    11.5600        88
    11.5800        72
    11.6000        96
    11.6200        82
    11.6400        88
    11.6600        90
    11.6800        76
    11.7000        68
    11.7200        88
    11.7400        90
    11.7600        62
    11.7800       104
    11.8000        82
    11.8200        68
    11.8400        82
    11.8600        88
    11.8800        88
    11.9000        94
    11.9200        82
    11.9400        80
    11.9600        80
    11.9800        64
    12.0000        86
    12.0200       110
    12.0400        88
    12.0600        92
    12.0800        74
    12.1000        90
    12.1200        74
    12.1400        94
    12.1600        74
    12.1800        88
    12.2000        84
    12.2200        86
    12.2400        64
    12.2600        84
    12.2800        80
    12.3000        86
    12.3200        90
    12.3400        72
    12.3600        78
    12.3800        78
    12.4000        62
    12.4200        68
    12.4400        94
    12.4600        96
    12.4800        68
    12.5000        72
    12.5200        86
    12.5400        72
    12.5600        72
    12.5800        70
    12.6000        70
    12.6200        78
    12.6400        76
    12.6600        76
    12.6800        80
    12.7000        64
    12.7200        78
    12.7400        84
    12.7600        68
    12.7800        72
    12.8000        82
    12.8200        70
    12.8400        68
    12.8600        50
    12.8800        84
    12.9000        76
    12.9200        60
    12.9400        72
    12.9600        72
    12.9800        78
    13.0000        66
    13.0200        74
    13.0400        56
    13.0600        64
    13.0800        66
    13.1000        68
    13.1200        74
    13.1400        72
    13.1600        58
    13.1800        70
    13.2000        76
    13.2200        54
    13.2400        68
    13.2600        72
    13.2800        70
    13.3000        72
    13.3200        60
    13.3400        60
    13.3600        60
    13.3800        72
    13.4000        58
    13.4200        62
    13.4400        72
    13.4600        72
    13.4800        68
    13.5000        74
    13.5200        86
    13.5400        70
    13.5600        76
    13.5800        66
    13.6000        66
    13.6200        76
    13.6400        64
    13.6600        60
    13.6800        70
    13.7000        68
    13.7200        54
    13.7400        70
    13.7600        60
    13.7800        76
    13.8000        58
    13.8200        74
    13.8400        74
    13.8600        66
    13.8800        62
    13.9000        60
    13.9200        70
    13.9400        78
    13.9600        56
    13.9800        64
    14.0000        54
    14.0200        56
    14.0400        62
    14.0600        62
    14.0800        56
    14.1000        56
    14.1200        88
    14.1400        66
    14.1600        58
    14.1800        58
    14.2000        56
    14.2200        88
    14.2400        68
    14.2600        74
    14.2800        66
    14.3000        70
    14.3200        66
    14.3400        66
    14.3600        74
    14.3800        56
    14.4000        78
    14.4200        62
    14.4400        50
    14.4600        68
    14.4800        76
    14.5000        56
    14.5200        56
    14.5400        84
    14.5600        64
    14.5800        58
    14.6000        66
    14.6200        72
    14.6400        60
    14.6600        54
    14.6800        50
    14.7000        68
    14.7200        74
    14.7400        58
    14.7600        56
    14.7800        78
    14.8000        62
    14.8200        76
    14.8400        54
    14.8600        60
    14.8800        64
    14.9000        58
    14.9200        76
    14.9400        50
    14.9600        62
    14.9800        54
    15.0000        66
    15.0200        72
    15.0400        64
    15.0600        66
    15.0800        62
    15.1000        66
    15.1200        68
    15.1400        84
    15.1600        80
    15.1800        76
    15.2000        72
    15.2200        96
    15.2400       100
    15.2600       120
    15.2800       104
    15.3000       104
    15.3200       130
    15.3400       156
    15.3600       152
    15.3800       192
    15.4000       176
    15.4200       200
    15.4400       188
    15.4600       202
    15.4800       166
    15.5000       144
    15.5200       138
    15.5400       114
    15.5600       112
    15.5800        82
    15.6000        80
    15.6200       100
    15.6400        76
    15.6600        74
    15.6800        82
    15.7000        68
    15.7200        88
    15.7400        62
    15.7600        56
    15.7800        58
    15.8000        50
    15.8200        60
    15.8400        56
    15.8600        56
    15.8800        62
    15.9000        58
    15.9200        60
    15.9400        54
    15.9600        50
    15.9800        60
    16.0000        54
    16.0200        54
    16.0400        54
    16.0600        52
    16.0800        56
    16.1000        54
    16.1200        52
    16.1400        64
    16.1600        56
    16.1800        40
    16.2000        62
    16.2200        56
    16.2400        64
    16.2600        52
    16.2800        64
    16.3000        62
    16.3200        64
    16.3400        56
    16.3600        46
    16.3800        70
    16.4000        64
    16.4200        56
    16.4400        58
    16.4600        48
    16.4800        62
    16.5000        64
    16.5200        68
    16.5400        66
    16.5600        52
    16.5800        66
    16.6000        34
    16.6200        60
    16.6400        56
    16.6600        58
    16.6800        48
    16.7000        58
    16.7200        56
    16.7400        58
    16.7600        60
    16.7800        60
    16.8000        68
    16.8200        72
    16.8400        56
    16.8600        56
    16.8800        62
    16.9000        64
    16.9200        58
    16.9400        46
    16.9600        68
    16.9800        60
    17.0000        66
    17.0200        66
    17.0400        72
    17.0600        60
    17.0800        70
    17.1000        52
    17.1200        62
    17.1400        62
    17.1600        68
    17.1800        64
    17.2000        68
    17.2200        58
    17.2400        78
    17.2600        78
    17.2800        70
    17.3000        82
    17.3200        80
    17.3400        70
    17.3600        80
    17.3800       104
    17.4000       104
    17.4200       102
    17.4400       108
    17.4600       132
    17.4800       122
    17.5000       140
    17.5200       124
    17.5400       160
    17.5600       176
    17.5800       216
    17.6000       216
    17.6200       244
    17.6400       274
    17.6600       354
    17.6800       360
    17.7000       456
    17.7200       548
    17.7400       638
    17.7600       756
    17.7800       944
    17.8000      1118
    17.8200      1090
    17.8400      1132
    17.8600      1016
    17.8800       978
    17.9000       820
    17.9200       696
    17.9400       564
    17.9600       446
    17.9800       392
    18.0000       288
    18.0200       244
    18.0400       194
    18.0600       142
    18.0800       146
    18.1000       106
    18.1200        78
    18.1400        76
    18.1600        76
    18.1800        52
    18.2000        70
    18.2200        84
    18.2400        58
    18.2600        52
    18.2800        58
    18.3000        64
    18.3200        56
    18.3400        50
    18.3600        50
    18.3800        56
    18.4000        54
    18.4200        42
    18.4400        60
    18.4600        44
    18.4800        40
    18.5000        50
    18.5200        50
    18.5400        52
    18.5600        44
    18.5800        42
    18.6000        58
    18.6200        46
    18.6400        46
    18.6600        52
    18.6800        54
    18.7000        48
    18.7200        40
    18.7400        68
    18.7600        50
    18.7800        60
    18.8000        58
    18.8200        54
    18.8400        52
    18.8600        44
    18.8800        54
    18.9000        56
    18.9200        44
    18.9400        50
    18.9600        48
    18.9800        46
    19.0000        46
    19.0200        54
    19.0400        48
    19.0600        48
    19.0800        52
    19.1000        42
    19.1200        48
    19.1400        50
    19.1600        38
    19.1800        50
    19.2000        64
    19.2200        48
    19.2400        60
    19.2600        66
    19.2800        42
    19.3000        68
    19.3200        50
    19.3400        42
    19.3600        52
    19.3800        54
    19.4000        32
    19.4200        48
    19.4400        44
    19.4600        34
    19.4800        56
    19.5000        60
    19.5200        58
    19.5400        66
    19.5600        42
    19.5800        44
    19.6000        58
    19.6200        52
    19.6400        66
    19.6600        36
    19.6800        48
    19.7000        46
    19.7200        42
    19.7400        42
    19.7600        42
    19.7800        50
    19.8000        60
    19.8200        48
    19.8400        32
    19.8600        46
    19.8800        44
    19.9000        46
    19.9200        58
    19.9400        46
    19.9600        52
    19.9800        52
    20.0000        58
    20.0200        54
    20.0400        48
    20.0600        48
    20.0800        58
    20.1000        54
    20.1200        58
    20.1400        64
    20.1600        48
    20.1800        50
    20.2000        46
    20.2200        42
    20.2400        32
    20.2600        38
    20.2800        44
    20.3000        48
    20.3200        34
    20.3400        58
    20.3600        38
