/////////////////////////////////////////////////////////////////////////////////
/// Profile Data Ascii Dump (XRD)                                             ///
/////////////////////////////////////////////////////////////////////////////////

  Group     : Swayze
  Data      : GDS33
  File Name : GDS33.RAW

# Profile Datafile
          comment             = Europium Oxide 
          date & time         = 08-03-25 06:53:08 

# Measurement Condition
    X-ray tube
          target              = Cu 
          voltage             = 40.0 (kV)
          current             = 30.0 (mA)
    Slits
          divergence slit     = 2.00000 (deg) 
          scatter slit        = 2.00000 (deg) 
          receiving slit      = 0.15000 (mm)  
    Scanning
          drive axis          = Theta-2Theta 
          scan range          =    4.000 -   65.000 
          scan mode           = Continuous Scan 
          scan speed          =   2.0000 (deg/min) 
          sampling pitch      =   0.0200 (deg) 
          preset time         =   0.60 (sec) 

# Data      [ Total No. = 3051 ]
  <2Theta>   <   I   >
     4.0000       174
     4.0200       182
     4.0400       176
     4.0600       154
     4.0800       200
     4.1000       166
     4.1200       190
     4.1400       188
     4.1600       166
     4.1800       160
     4.2000       178
     4.2200       176
     4.2400       182
     4.2600       170
     4.2800       150
     4.3000       170
     4.3200       172
     4.3400       166
     4.3600       172
     4.3800       172
     4.4000       156
     4.4200       132
     4.4400       176
     4.4600       174
     4.4800       168
     4.5000       154
     4.5200       162
     4.5400       160
     4.5600       174
     4.5800       154
     4.6000       146
     4.6200       154
     4.6400       150
     4.6600       138
     4.6800       134
     4.7000       162
     4.7200       156
     4.7400       158
     4.7600       166
     4.7800       150
     4.8000       158
     4.8200       148
     4.8400       136
     4.8600       142
     4.8800       152
     4.9000       152
     4.9200       158
     4.9400       142
     4.9600       150
     4.9800       142
     5.0000       146
     5.0200       160
     5.0400       154
     5.0600       144
     5.0800       150
     5.1000       160
     5.1200       148
     5.1400       146
     5.1600       140
     5.1800       150
     5.2000       166
     5.2200       138
     5.2400       146
     5.2600       158
     5.2800       156
     5.3000       144
     5.3200       162
     5.3400       158
     5.3600       152
     5.3800       144
     5.4000       142
     5.4200       166
     5.4400       146
     5.4600       154
     5.4800       158
     5.5000       138
     5.5200       158
     5.5400       146
     5.5600       138
     5.5800       140
     5.6000       158
     5.6200       140
     5.6400       164
     5.6600       154
     5.6800       156
     5.7000       154
     5.7200       152
     5.7400       162
     5.7600       138
     5.7800       144
     5.8000       180
     5.8200       144
     5.8400       164
     5.8600       162
     5.8800       150
     5.9000       154
     5.9200       140
     5.9400       164
     5.9600       156
     5.9800       126
     6.0000       166
     6.0200       150
     6.0400       152
     6.0600       144
     6.0800       130
     6.1000       164
     6.1200       114
     6.1400       134
     6.1600       136
     6.1800       146
     6.2000       148
     6.2200       124
     6.2400       164
     6.2600       136
     6.2800       134
     6.3000       140
     6.3200       114
     6.3400       128
     6.3600       116
     6.3800       154
     6.4000       132
     6.4200       130
     6.4400       134
     6.4600       156
     6.4800       118
     6.5000       154
     6.5200       122
     6.5400       114
     6.5600       138
     6.5800       150
     6.6000       122
     6.6200       120
     6.6400       112
     6.6600       128
     6.6800       102
     6.7000       130
     6.7200       124
     6.7400       128
     6.7600       130
     6.7800       154
     6.8000       122
     6.8200       140
     6.8400       110
     6.8600        92
     6.8800       124
     6.9000       120
     6.9200       138
     6.9400       126
     6.9600       120
     6.9800        96
     7.0000       146
     7.0200       122
     7.0400       120
     7.0600       108
     7.0800       136
     7.1000       110
     7.1200       116
     7.1400       110
     7.1600       100
     7.1800       110
     7.2000       110
     7.2200       100
     7.2400       110
     7.2600       114
     7.2800       112
     7.3000       100
     7.3200       120
     7.3400        94
     7.3600       126
     7.3800       122
     7.4000       110
     7.4200       100
     7.4400       110
     7.4600        98
     7.4800       108
     7.5000       100
     7.5200       126
     7.5400       126
     7.5600       106
     7.5800        94
     7.6000       106
     7.6200       116
     7.6400       110
     7.6600        94
     7.6800       102
     7.7000        94
     7.7200       102
     7.7400       118
     7.7600        98
     7.7800       108
     7.8000       108
     7.8200       110
     7.8400       106
     7.8600       112
     7.8800       114
     7.9000       104
     7.9200       116
     7.9400        90
     7.9600       104
     7.9800       110
     8.0000       118
     8.0200       116
     8.0400       134
     8.0600       104
     8.0800       108
     8.1000        98
     8.1200       114
     8.1400       104
     8.1600       118
     8.1800       108
     8.2000       118
     8.2200        86
     8.2400        86
     8.2600       112
     8.2800       106
     8.3000       114
     8.3200       104
     8.3400       112
     8.3600       126
     8.3800       118
     8.4000        96
     8.4200       114
     8.4400        98
     8.4600       122
     8.4800       116
     8.5000       120
     8.5200       108
     8.5400       106
     8.5600       108
     8.5800       116
     8.6000       120
     8.6200       100
     8.6400       116
     8.6600       118
     8.6800        90
     8.7000       112
     8.7200       112
     8.7400       108
     8.7600       132
     8.7800        90
     8.8000        90
     8.8200        82
     8.8400       108
     8.8600       120
     8.8800       124
     8.9000       116
     8.9200        94
     8.9400        96
     8.9600       100
     8.9800       106
     9.0000       108
     9.0200        96
     9.0400        96
     9.0600       114
     9.0800       112
     9.1000       104
     9.1200        98
     9.1400       104
     9.1600       132
     9.1800       110
     9.2000       108
     9.2200       108
     9.2400        90
     9.2600        96
     9.2800        90
     9.3000       120
     9.3200       108
     9.3400        80
     9.3600       112
     9.3800        86
     9.4000        96
     9.4200       108
     9.4400       106
     9.4600       106
     9.4800       122
     9.5000       100
     9.5200       102
     9.5400       106
     9.5600       118
     9.5800       104
     9.6000        98
     9.6200       106
     9.6400       104
     9.6600       106
     9.6800       124
     9.7000       126
     9.7200       104
     9.7400       102
     9.7600       108
     9.7800        98
     9.8000       102
     9.8200        96
     9.8400        92
     9.8600       100
     9.8800       102
     9.9000       100
     9.9200        90
     9.9400        82
     9.9600       100
     9.9800       106
    10.0000        82
    10.0200        94
    10.0400       138
    10.0600       112
    10.0800        86
    10.1000       102
    10.1200       116
    10.1400       102
    10.1600       110
    10.1800        94
    10.2000        96
    10.2200       112
    10.2400        98
    10.2600        94
    10.2800        82
    10.3000        94
    10.3200        84
    10.3400        84
    10.3600        90
    10.3800        90
    10.4000        90
    10.4200        72
    10.4400        98
    10.4600        86
    10.4800        96
    10.5000        92
    10.5200        88
    10.5400        84
    10.5600        90
    10.5800        90
    10.6000        86
    10.6200        86
    10.6400       106
    10.6600       102
    10.6800        88
    10.7000        90
    10.7200        96
    10.7400        90
    10.7600       104
    10.7800       116
    10.8000        82
    10.8200        86
    10.8400        78
    10.8600        90
    10.8800        84
    10.9000        70
    10.9200        88
    10.9400        74
    10.9600        72
    10.9800        88
    11.0000        80
    11.0200        90
    11.0400       108
    11.0600        86
    11.0800        82
    11.1000        92
    11.1200        76
    11.1400        96
    11.1600        96
    11.1800        74
    11.2000        80
    11.2200        78
    11.2400        84
    11.2600        86
    11.2800        82
    11.3000        88
    11.3200        94
    11.3400        90
    11.3600        78
    11.3800        84
    11.4000       100
    11.4200        78
    11.4400        76
    11.4600        72
    11.4800        88
    11.5000        70
    11.5200        82
    11.5400        74
    11.5600        68
    11.5800        88
    11.6000        76
    11.6200        56
    11.6400        84
    11.6600        78
    11.6800        58
    11.7000        56
    11.7200        62
    11.7400        78
    11.7600        74
    11.7800        72
    11.8000        84
    11.8200        76
    11.8400        70
    11.8600        84
    11.8800        74
    11.9000        84
    11.9200        74
    11.9400        68
    11.9600        84
    11.9800        58
    12.0000        72
    12.0200        74
    12.0400        68
    12.0600        72
    12.0800        70
    12.1000        68
    12.1200        60
    12.1400        58
    12.1600        62
    12.1800        66
    12.2000        82
    12.2200        70
    12.2400        50
    12.2600        76
    12.2800        78
    12.3000        74
    12.3200        94
    12.3400        84
    12.3600        72
    12.3800        70
    12.4000        90
    12.4200        76
    12.4400        78
    12.4600        70
    12.4800        78
    12.5000        88
    12.5200        76
    12.5400        66
    12.5600        66
    12.5800        42
    12.6000        52
    12.6200        76
    12.6400        66
    12.6600        62
    12.6800        68
    12.7000        60
    12.7200        82
    12.7400        86
    12.7600        88
    12.7800        80
    12.8000        72
    12.8200        82
    12.8400        64
    12.8600        64
    12.8800        78
    12.9000        82
    12.9200        62
    12.9400        82
    12.9600        62
    12.9800        78
    13.0000        78
    13.0200        66
    13.0400        78
    13.0600        58
    13.0800        80
    13.1000        74
    13.1200        72
    13.1400        62
    13.1600        72
    13.1800        66
    13.2000        80
    13.2200        60
    13.2400        60
    13.2600        80
    13.2800        58
    13.3000        66
    13.3200        72
    13.3400        60
    13.3600        74
    13.3800        80
    13.4000        60
    13.4200        60
    13.4400        62
    13.4600        66
    13.4800        60
    13.5000        62
    13.5200        66
    13.5400        76
    13.5600        58
    13.5800        58
    13.6000        72
    13.6200        66
    13.6400        64
    13.6600        66
    13.6800        68
    13.7000        68
    13.7200        62
    13.7400        74
    13.7600        78
    13.7800        64
    13.8000        74
    13.8200        66
    13.8400        60
    13.8600        76
    13.8800        80
    13.9000        72
    13.9200        46
    13.9400        56
    13.9600        64
    13.9800        66
    14.0000        52
    14.0200        56
    14.0400        56
    14.0600        76
    14.0800        62
    14.1000        74
    14.1200        70
    14.1400        56
    14.1600        48
    14.1800        72
    14.2000        76
    14.2200        66
    14.2400        70
    14.2600        62
    14.2800        62
    14.3000        60
    14.3200        66
    14.3400        68
    14.3600        58
    14.3800        60
    14.4000        48
    14.4200        50
    14.4400        56
    14.4600        50
    14.4800        60
    14.5000        58
    14.5200        72
    14.5400        48
    14.5600        70
    14.5800        74
    14.6000        54
    14.6200        54
    14.6400        58
    14.6600        56
    14.6800        66
    14.7000        66
    14.7200        78
    14.7400        78
    14.7600        52
    14.7800        62
    14.8000        62
    14.8200        72
    14.8400        56
    14.8600        70
    14.8800        80
    14.9000        70
    14.9200        78
    14.9400        70
    14.9600        68
    14.9800        58
    15.0000        78
    15.0200        76
    15.0400        60
    15.0600        56
    15.0800        62
    15.1000        56
    15.1200        58
    15.1400        72
    15.1600        64
    15.1800        54
    15.2000        66
    15.2200        68
    15.2400        52
    15.2600        66
    15.2800        76
    15.3000        54
    15.3200        56
    15.3400        88
    15.3600        70
    15.3800        54
    15.4000        54
    15.4200        64
    15.4400        68
    15.4600        72
    15.4800        62
    15.5000        62
    15.5200        68
    15.5400        48
    15.5600        70
    15.5800        82
    15.6000        54
    15.6200        92
    15.6400        68
    15.6600        64
    15.6800        88
    15.7000        64
    15.7200        64
    15.7400        40
    15.7600        46
    15.7800        70
    15.8000        72
    15.8200        68
    15.8400        64
    15.8600        64
    15.8800        64
    15.9000        76
    15.9200        74
    15.9400        58
    15.9600        52
    15.9800        48
    16.0000        78
    16.0200        60
    16.0400        58
    16.0600        74
    16.0800        60
    16.1000        60
    16.1200        56
    16.1400        66
    16.1600        54
    16.1800        56
    16.2000        40
    16.2200        62
    16.2400        50
    16.2600        78
    16.2800        56
    16.3000        48
    16.3200        60
    16.3400        54
    16.3600        58
    16.3800        72
    16.4000        50
    16.4200        44
    16.4400        52
    16.4600        66
    16.4800        56
    16.5000        54
    16.5200        52
    16.5400        48
    16.5600        54
    16.5800        42
    16.6000        52
    16.6200        46
    16.6400        58
    16.6600        56
    16.6800        50
    16.7000        50
    16.7200        52
    16.7400        60
    16.7600        54
    16.7800        56
    16.8000        44
    16.8200        46
    16.8400        60
    16.8600        66
    16.8800        46
    16.9000        54
    16.9200        48
    16.9400        50
    16.9600        56
    16.9800        52
    17.0000        44
    17.0200        64
    17.0400        46
    17.0600        50
    17.0800        36
    17.1000        54
    17.1200        40
    17.1400        62
    17.1600        44
    17.1800        54
    17.2000        50
    17.2200        58
    17.2400        52
    17.2600        54
    17.2800        48
    17.3000        40
    17.3200        48
    17.3400        64
    17.3600        54
    17.3800        64
    17.4000        50
    17.4200        52
    17.4400        62
    17.4600        62
    17.4800        36
    17.5000        44
    17.5200        44
    17.5400        50
    17.5600        42
    17.5800        56
    17.6000        58
    17.6200        56
    17.6400        54
    17.6600        54
    17.6800        50
    17.7000        62
    17.7200        50
    17.7400        66
    17.7600        58
    17.7800        50
    17.8000        62
    17.8200        42
    17.8400        58
    17.8600        44
    17.8800        58
    17.9000        62
    17.9200        44
    17.9400        42
    17.9600        42
    17.9800        46
    18.0000        60
    18.0200        58
    18.0400        44
    18.0600        60
    18.0800        52
    18.1000        48
    18.1200        50
    18.1400        46
    18.1600        50
    18.1800        58
    18.2000        52
    18.2200        48
    18.2400        50
    18.2600        40
    18.2800        52
    18.3000        44
    18.3200        42
    18.3400        62
    18.3600        42
    18.3800        40
    18.4000        52
    18.4200        38
    18.4400        46
    18.4600        46
    18.4800        74
    18.5000        40
    18.5200        54
    18.5400        46
    18.5600        48
    18.5800        54
    18.6000        50
    18.6200        40
    18.6400        52
    18.6600        56
    18.6800        54
    18.7000        60
    18.7200        56
    18.7400        54
    18.7600        54
    18.7800        52
    18.8000        36
    18.8200        44
    18.8400        54
    18.8600        50
    18.8800        50
    18.9000        48
    18.9200        40
    18.9400        42
    18.9600        50
    18.9800        30
    19.0000        42
    19.0200        46
    19.0400        52
    19.0600        56
    19.0800        48
    19.1000        38
    19.1200        44
    19.1400        34
    19.1600        52
    19.1800        52
    19.2000        42
    19.2200        48
    19.2400        44
    19.2600        44
    19.2800        48
    19.3000        64
    19.3200        42
    19.3400        64
    19.3600        60
    19.3800        46
    19.4000        50
    19.4200        54
    19.4400        66
    19.4600        54
    19.4800        54
    19.5000        54
    19.5200        46
    19.5400        50
    19.5600        62
    19.5800        58
    19.6000        58
    19.6200        54
    19.6400        50
    19.6600        54
    19.6800        50
    19.7000        46
    19.7200        62
    19.7400        60
    19.7600        74
    19.7800        56
    19.8000        72
    19.8200        72
    19.8400        78
    19.8600        82
    19.8800        78
    19.9000        96
    19.9200        82
    19.9400       102
    19.9600       102
    19.9800        90
    20.0000        92
    20.0200        82
    20.0400        74
    20.0600        66
    20.0800        60
    20.1000        80
    20.1200        58
    20.1400        48
    20.1600        58
    20.1800        62
    20.2000        52
    20.2200        50
    20.2400        56
    20.2600        38
    20.2800        60
    20.3000        38
    20.3200        48
    20.3400        38
    20.3600        34
    20.3800        62
