/////////////////////////////////////////////////////////////////////////////////
/// Profile Data Ascii Dump (XRD)                                             ///
/////////////////////////////////////////////////////////////////////////////////

  Group     : Swayze
  Data      : GDS38B
  File Name : GDS38B.RAW

# Profile Datafile
          comment             = Scapolite 
          date & time         = 08-03-24 06:16:03 

# Measurement Condition
    X-ray tube
          target              = Cu 
          voltage             = 40.0 (kV)
          current             = 30.0 (mA)
    Slits
          divergence slit     = 2.00000 (deg) 
          scatter slit        = 2.00000 (deg) 
          receiving slit      = 0.15000 (mm)  
    Scanning
          drive axis          = Theta-2Theta 
          scan range          =    4.000 -   65.000 
          scan mode           = Continuous Scan 
          scan speed          =   2.0000 (deg/min) 
          sampling pitch      =   0.0200 (deg) 
          preset time         =   0.60 (sec) 

# Data      [ Total No. = 3051 ]
  <2Theta>   <   I   >
     4.0000       200
     4.0200       180
     4.0400       172
     4.0600       180
     4.0800       186
     4.1000       198
     4.1200       174
     4.1400       172
     4.1600       210
     4.1800       186
     4.2000       184
     4.2200       184
     4.2400       168
     4.2600       180
     4.2800       192
     4.3000       194
     4.3200       212
     4.3400       194
     4.3600       174
     4.3800       186
     4.4000       180
     4.4200       184
     4.4400       166
     4.4600       150
     4.4800       180
     4.5000       188
     4.5200       176
     4.5400       168
     4.5600       158
     4.5800       194
     4.6000       162
     4.6200       180
     4.6400       190
     4.6600       166
     4.6800       182
     4.7000       162
     4.7200       174
     4.7400       172
     4.7600       170
     4.7800       144
     4.8000       170
     4.8200       162
     4.8400       174
     4.8600       162
     4.8800       156
     4.9000       158
     4.9200       170
     4.9400       168
     4.9600       158
     4.9800       170
     5.0000       170
     5.0200       174
     5.0400       158
     5.0600       160
     5.0800       166
     5.1000       156
     5.1200       166
     5.1400       176
     5.1600       154
     5.1800       162
     5.2000       158
     5.2200       180
     5.2400       168
     5.2600       182
     5.2800       156
     5.3000       154
     5.3200       136
     5.3400       176
     5.3600       178
     5.3800       170
     5.4000       182
     5.4200       174
     5.4400       172
     5.4600       168
     5.4800       136
     5.5000       142
     5.5200       168
     5.5400       166
     5.5600       162
     5.5800       168
     5.6000       178
     5.6200       170
     5.6400       172
     5.6600       144
     5.6800       146
     5.7000       174
     5.7200       182
     5.7400       158
     5.7600       130
     5.7800       142
     5.8000       168
     5.8200       170
     5.8400       156
     5.8600       176
     5.8800       166
     5.9000       184
     5.9200       160
     5.9400       184
     5.9600       132
     5.9800       144
     6.0000       166
     6.0200       162
     6.0400       150
     6.0600       166
     6.0800       158
     6.1000       142
     6.1200       142
     6.1400       176
     6.1600       166
     6.1800       172
     6.2000       150
     6.2200       146
     6.2400       148
     6.2600       148
     6.2800       134
     6.3000       150
     6.3200       178
     6.3400       144
     6.3600       172
     6.3800       144
     6.4000       146
     6.4200       172
     6.4400       164
     6.4600       148
     6.4800       150
     6.5000       154
     6.5200       150
     6.5400       156
     6.5600       146
     6.5800       150
     6.6000       138
     6.6200       128
     6.6400       120
     6.6600       130
     6.6800       166
     6.7000       136
     6.7200       116
     6.7400       126
     6.7600       154
     6.7800       132
     6.8000       144
     6.8200       130
     6.8400       132
     6.8600       128
     6.8800       120
     6.9000       150
     6.9200       150
     6.9400       148
     6.9600       156
     6.9800       140
     7.0000       128
     7.0200       142
     7.0400       130
     7.0600       114
     7.0800       130
     7.1000       126
     7.1200       132
     7.1400       130
     7.1600       154
     7.1800       128
     7.2000       132
     7.2200       146
     7.2400       118
     7.2600       110
     7.2800       122
     7.3000       122
     7.3200       128
     7.3400       124
     7.3600       112
     7.3800       126
     7.4000       124
     7.4200       130
     7.4400       116
     7.4600       104
     7.4800       124
     7.5000       112
     7.5200       124
     7.5400       146
     7.5600       120
     7.5800       142
     7.6000       116
     7.6200       140
     7.6400       120
     7.6600       132
     7.6800       114
     7.7000       120
     7.7200       116
     7.7400       116
     7.7600       114
     7.7800       118
     7.8000        92
     7.8200       130
     7.8400       106
     7.8600       118
     7.8800       132
     7.9000       118
     7.9200       110
     7.9400       110
     7.9600       122
     7.9800       144
     8.0000       100
     8.0200       108
     8.0400       152
     8.0600       140
     8.0800       134
     8.1000       114
     8.1200       102
     8.1400       124
     8.1600       104
     8.1800       132
     8.2000       110
     8.2200       126
     8.2400       124
     8.2600       114
     8.2800       104
     8.3000       110
     8.3200       100
     8.3400       136
     8.3600       130
     8.3800       136
     8.4000       126
     8.4200       110
     8.4400       128
     8.4600       132
     8.4800       132
     8.5000       108
     8.5200       122
     8.5400       112
     8.5600       128
     8.5800       136
     8.6000       130
     8.6200       124
     8.6400       110
     8.6600       116
     8.6800       120
     8.7000       120
     8.7200       122
     8.7400       126
     8.7600       128
     8.7800       114
     8.8000       114
     8.8200       162
     8.8400       130
     8.8600       120
     8.8800       134
     8.9000       120
     8.9200       130
     8.9400        92
     8.9600       128
     8.9800       110
     9.0000       118
     9.0200       126
     9.0400       116
     9.0600       124
     9.0800       134
     9.1000       118
     9.1200       118
     9.1400       130
     9.1600       104
     9.1800       120
     9.2000       116
     9.2200       120
     9.2400       116
     9.2600       130
     9.2800       122
     9.3000       106
     9.3200       116
     9.3400       128
     9.3600       148
     9.3800       126
     9.4000       132
     9.4200       124
     9.4400       124
     9.4600       112
     9.4800       120
     9.5000       120
     9.5200       132
     9.5400       112
     9.5600       134
     9.5800       140
     9.6000       104
     9.6200       142
     9.6400       112
     9.6600       114
     9.6800       150
     9.7000       124
     9.7200       106
     9.7400        98
     9.7600       120
     9.7800       114
     9.8000       122
     9.8200       138
     9.8400       110
     9.8600       124
     9.8800       130
     9.9000       122
     9.9200       132
     9.9400       118
     9.9600       140
     9.9800        92
    10.0000       130
    10.0200       116
    10.0400       114
    10.0600       120
    10.0800       128
    10.1000       108
    10.1200       122
    10.1400       122
    10.1600       148
    10.1800       136
    10.2000       152
    10.2200       150
    10.2400       140
    10.2600       170
    10.2800       160
    10.3000       144
    10.3200       156
    10.3400       126
    10.3600       126
    10.3800       112
    10.4000       106
    10.4200        88
    10.4400       122
    10.4600        98
    10.4800       112
    10.5000       120
    10.5200       112
    10.5400       116
    10.5600       120
    10.5800       114
    10.6000        96
    10.6200       112
    10.6400       104
    10.6600       112
    10.6800       108
    10.7000        98
    10.7200       106
    10.7400        86
    10.7600        96
    10.7800       106
    10.8000        92
    10.8200       100
    10.8400       124
    10.8600        90
    10.8800        96
    10.9000       102
    10.9200       102
    10.9400        90
    10.9600       108
    10.9800        94
    11.0000        92
    11.0200        80
    11.0400       104
    11.0600       110
    11.0800        92
    11.1000        96
    11.1200        92
    11.1400       106
    11.1600       102
    11.1800       110
    11.2000        96
    11.2200        90
    11.2400       106
    11.2600       100
    11.2800        82
    11.3000        90
    11.3200        74
    11.3400        96
    11.3600       120
    11.3800       100
    11.4000        86
    11.4200        94
    11.4400        76
    11.4600        90
    11.4800        90
    11.5000        98
    11.5200        94
    11.5400        68
    11.5600        80
    11.5800        80
    11.6000       100
    11.6200        86
    11.6400        80
    11.6600        78
    11.6800        84
    11.7000       100
    11.7200        78
    11.7400        82
    11.7600       100
    11.7800        86
    11.8000        92
    11.8200        90
    11.8400        80
    11.8600        94
    11.8800       104
    11.9000        78
    11.9200       102
    11.9400        80
    11.9600        72
    11.9800        86
    12.0000       100
    12.0200        64
    12.0400        92
    12.0600       108
    12.0800        72
    12.1000        84
    12.1200        78
    12.1400        82
    12.1600        78
    12.1800        94
    12.2000        78
    12.2200       100
    12.2400        98
    12.2600       100
    12.2800        90
    12.3000        80
    12.3200        78
    12.3400        86
    12.3600        94
    12.3800        78
    12.4000       106
    12.4200        88
    12.4400        86
    12.4600        74
    12.4800        98
    12.5000        88
    12.5200        90
    12.5400        80
    12.5600        90
    12.5800        86
    12.6000        66
    12.6200        84
    12.6400        72
    12.6600        82
    12.6800        96
    12.7000        86
    12.7200        88
    12.7400        88
    12.7600        94
    12.7800        90
    12.8000        88
    12.8200        96
    12.8400        82
    12.8600        90
    12.8800        96
    12.9000        70
    12.9200        72
    12.9400        70
    12.9600        82
    12.9800        82
    13.0000        88
    13.0200        76
    13.0400        74
    13.0600        72
    13.0800        82
    13.1000        92
    13.1200        72
    13.1400        60
    13.1600        88
    13.1800        88
    13.2000        78
    13.2200        96
    13.2400        74
    13.2600        80
    13.2800        64
    13.3000        70
    13.3200        68
    13.3400        78
    13.3600        86
    13.3800        94
    13.4000        96
    13.4200        92
    13.4400        98
    13.4600        88
    13.4800        94
    13.5000       100
    13.5200        96
    13.5400        94
    13.5600       106
    13.5800       144
    13.6000       136
    13.6200       156
    13.6400       156
    13.6600       180
    13.6800       198
    13.7000       232
    13.7200       184
    13.7400       210
    13.7600       168
    13.7800       120
    13.8000        90
    13.8200        84
    13.8400        74
    13.8600        68
    13.8800        78
    13.9000        64
    13.9200        68
    13.9400        66
    13.9600        80
    13.9800        76
    14.0000        72
    14.0200        88
    14.0400        74
    14.0600        76
    14.0800        60
    14.1000        68
    14.1200        64
    14.1400        90
    14.1600        70
    14.1800        72
    14.2000        76
    14.2200        90
    14.2400        80
    14.2600        86
    14.2800        72
    14.3000        82
    14.3200        88
    14.3400        90
    14.3600        82
    14.3800        82
    14.4000       100
    14.4200        98
    14.4400       102
    14.4600       102
    14.4800       104
    14.5000       136
    14.5200       164
    14.5400       186
    14.5600       208
    14.5800       272
    14.6000       306
    14.6200       274
    14.6400       222
    14.6600       156
    14.6800       146
    14.7000       100
    14.7200        90
    14.7400        78
    14.7600        76
    14.7800        76
    14.8000        68
    14.8200        76
    14.8400        62
    14.8600        68
    14.8800        76
    14.9000        60
    14.9200        68
    14.9400        50
    14.9600        72
    14.9800        70
    15.0000        68
    15.0200        64
    15.0400        62
    15.0600        74
    15.0800        64
    15.1000        88
    15.1200        66
    15.1400        64
    15.1600        66
    15.1800        64
    15.2000        68
    15.2200        58
    15.2400        52
    15.2600        58
    15.2800        70
    15.3000        60
    15.3200        64
    15.3400        48
    15.3600        56
    15.3800        64
    15.4000        58
    15.4200        68
    15.4400        62
    15.4600        72
    15.4800        94
    15.5000        64
    15.5200        66
    15.5400        66
    15.5600        76
    15.5800        58
    15.6000        36
    15.6200        60
    15.6400        74
    15.6600        66
    15.6800        64
    15.7000        68
    15.7200        72
    15.7400        62
    15.7600        50
    15.7800        70
    15.8000        64
    15.8200        64
    15.8400        60
    15.8600        60
    15.8800        68
    15.9000        50
    15.9200        60
    15.9400        78
    15.9600        74
    15.9800        64
    16.0000        68
    16.0200        48
    16.0400        70
    16.0600        74
    16.0800        62
    16.1000        68
    16.1200        82
    16.1400        54
    16.1600        40
    16.1800        62
    16.2000        66
    16.2200        64
    16.2400        64
    16.2600        52
    16.2800        58
    16.3000        56
    16.3200        50
    16.3400        90
    16.3600        62
    16.3800        68
    16.4000        66
    16.4200        62
    16.4400        54
    16.4600        64
    16.4800        60
    16.5000        68
    16.5200        58
    16.5400        70
    16.5600        62
    16.5800        62
    16.6000        60
    16.6200        70
    16.6400        62
    16.6600        72
    16.6800        66
    16.7000        74
    16.7200        54
    16.7400        58
    16.7600        58
    16.7800        64
    16.8000        46
    16.8200        58
    16.8400        58
    16.8600        48
    16.8800        56
    16.9000        50
    16.9200        54
    16.9400        64
    16.9600        50
    16.9800        56
    17.0000        44
    17.0200        66
    17.0400        58
    17.0600        62
    17.0800        44
    17.1000        56
    17.1200        58
    17.1400        42
    17.1600        64
    17.1800        68
    17.2000        54
    17.2200        56
    17.2400        48
    17.2600        58
    17.2800        46
    17.3000        52
    17.3200        58
    17.3400        64
    17.3600        74
    17.3800        66
    17.4000        60
    17.4200        62
    17.4400        64
    17.4600        54
    17.4800        38
    17.5000        54
    17.5200        44
    17.5400        62
    17.5600        58
    17.5800        68
    17.6000        50
    17.6200        60
    17.6400        64
    17.6600        66
    17.6800        52
    17.7000        62
    17.7200        68
    17.7400        58
    17.7600        54
    17.7800        54
    17.8000        62
    17.8200        50
    17.8400        52
    17.8600        72
    17.8800        54
    17.9000        54
    17.9200        64
    17.9400        50
    17.9600        48
    17.9800        60
    18.0000        56
    18.0200        60
    18.0400        64
    18.0600        54
    18.0800        72
    18.1000        60
    18.1200        42
    18.1400        74
    18.1600        62
    18.1800        60
    18.2000        56
    18.2200        42
    18.2400        60
    18.2600        46
    18.2800        40
    18.3000        60
    18.3200        44
    18.3400        54
    18.3600        48
    18.3800        56
    18.4000        60
    18.4200        42
    18.4400        66
    18.4600        62
    18.4800        44
    18.5000        74
    18.5200        40
    18.5400        58
    18.5600        68
    18.5800        62
    18.6000        60
    18.6200        56
    18.6400        48
    18.6600        72
    18.6800        68
    18.7000        62
    18.7200        70
    18.7400        68
    18.7600        56
    18.7800        54
    18.8000        58
    18.8200        50
    18.8400        52
    18.8600        44
    18.8800        64
    18.9000        50
    18.9200        36
    18.9400        64
    18.9600        46
    18.9800        60
    19.0000        60
    19.0200        56
    19.0400        50
    19.0600        46
    19.0800        54
    19.1000        46
    19.1200        64
    19.1400        42
    19.1600        52
    19.1800        64
    19.2000        74
    19.2200        38
    19.2400        40
    19.2600        46
    19.2800        52
    19.3000        50
    19.3200        58
    19.3400        40
    19.3600        48
    19.3800        58
    19.4000        56
    19.4200        54
    19.4400        50
    19.4600        54
    19.4800        44
    19.5000        54
    19.5200        60
    19.5400        54
    19.5600        70
    19.5800        42
    19.6000        50
    19.6200        64
    19.6400        66
    19.6600        62
    19.6800        50
    19.7000        60
    19.7200        62
    19.7400        62
    19.7600        68
    19.7800        64
    19.8000        66
    19.8200        50
    19.8400        60
    19.8600        54
    19.8800        58
    19.9000        56
    19.9200        80
    19.9400        76
    19.9600        80
    19.9800        60
    20.0000        86
    20.0200       102
    20.0400       116
    20.0600       106
    20.0800       114
    20.1000       126
    20.1200       118
    20.1400        88
    20.1600        74
    20.1800        74
    20.2000        56
    20.2200        50
    20.2400        64
    20.2600        64
    20.2800        50
    20.3000        52
    20.3200        56
    20.3400        56
    20.3600        40
    20.3800        72
