/////////////////////////////////////////////////////////////////////////////////
/// Profile Data Ascii Dump (XRD)                                             ///
/////////////////////////////////////////////////////////////////////////////////

  Group     : Swayze
  Data      : GDS46
  File Name : GDS46.RAW

# Profile Datafile
          comment             = Scapolite 
          date & time         = 08-03-25 06:22:10 

# Measurement Condition
    X-ray tube
          target              = Cu 
          voltage             = 40.0 (kV)
          current             = 30.0 (mA)
    Slits
          divergence slit     = 2.00000 (deg) 
          scatter slit        = 2.00000 (deg) 
          receiving slit      = 0.15000 (mm)  
    Scanning
          drive axis          = Theta-2Theta 
          scan range          =    4.000 -   65.000 
          scan mode           = Continuous Scan 
          scan speed          =   2.0000 (deg/min) 
          sampling pitch      =   0.0200 (deg) 
          preset time         =   0.60 (sec) 

# Data      [ Total No. = 3051 ]
  <2Theta>   <   I   >
     4.0000       176
     4.0200       168
     4.0400       174
     4.0600       202
     4.0800       196
     4.1000       190
     4.1200       166
     4.1400       186
     4.1600       170
     4.1800       166
     4.2000       160
     4.2200       182
     4.2400       168
     4.2600       148
     4.2800       168
     4.3000       182
     4.3200       164
     4.3400       182
     4.3600       178
     4.3800       178
     4.4000       168
     4.4200       176
     4.4400       188
     4.4600       166
     4.4800       156
     4.5000       142
     4.5200       176
     4.5400       148
     4.5600       152
     4.5800       162
     4.6000       146
     4.6200       152
     4.6400       158
     4.6600       180
     4.6800       126
     4.7000       164
     4.7200       182
     4.7400       148
     4.7600       156
     4.7800       144
     4.8000       142
     4.8200       150
     4.8400       138
     4.8600       178
     4.8800       162
     4.9000       156
     4.9200       152
     4.9400       152
     4.9600       140
     4.9800       160
     5.0000       140
     5.0200       168
     5.0400       168
     5.0600       150
     5.0800       128
     5.1000       164
     5.1200       162
     5.1400       158
     5.1600       146
     5.1800       150
     5.2000       154
     5.2200       150
     5.2400       150
     5.2600       154
     5.2800       152
     5.3000       168
     5.3200       172
     5.3400       158
     5.3600       152
     5.3800       154
     5.4000       180
     5.4200       166
     5.4400       168
     5.4600       152
     5.4800       162
     5.5000       156
     5.5200       156
     5.5400       140
     5.5600       152
     5.5800       154
     5.6000       168
     5.6200       172
     5.6400       154
     5.6600       144
     5.6800       144
     5.7000       160
     5.7200       144
     5.7400       136
     5.7600       144
     5.7800       150
     5.8000       144
     5.8200       146
     5.8400       168
     5.8600       138
     5.8800       152
     5.9000       154
     5.9200       140
     5.9400       154
     5.9600       142
     5.9800       156
     6.0000       146
     6.0200       154
     6.0400       162
     6.0600       166
     6.0800       158
     6.1000       150
     6.1200       166
     6.1400       142
     6.1600       160
     6.1800       140
     6.2000       174
     6.2200       142
     6.2400       118
     6.2600       148
     6.2800       126
     6.3000       150
     6.3200       150
     6.3400       146
     6.3600       144
     6.3800       162
     6.4000       150
     6.4200       148
     6.4400       148
     6.4600       144
     6.4800       138
     6.5000       126
     6.5200       152
     6.5400       138
     6.5600       130
     6.5800        96
     6.6000       130
     6.6200       138
     6.6400       124
     6.6600       142
     6.6800       126
     6.7000       130
     6.7200       108
     6.7400       130
     6.7600       126
     6.7800       114
     6.8000       118
     6.8200       128
     6.8400       124
     6.8600       126
     6.8800       134
     6.9000       114
     6.9200       122
     6.9400       108
     6.9600       138
     6.9800       110
     7.0000       108
     7.0200       122
     7.0400       122
     7.0600       134
     7.0800       138
     7.1000       124
     7.1200       102
     7.1400       124
     7.1600       108
     7.1800       108
     7.2000       112
     7.2200       120
     7.2400       112
     7.2600       118
     7.2800       106
     7.3000       110
     7.3200       122
     7.3400       114
     7.3600       104
     7.3800       102
     7.4000       108
     7.4200       104
     7.4400       104
     7.4600       116
     7.4800       106
     7.5000       104
     7.5200       102
     7.5400       114
     7.5600       106
     7.5800       110
     7.6000       118
     7.6200       136
     7.6400       120
     7.6600       128
     7.6800       108
     7.7000       112
     7.7200       106
     7.7400        92
     7.7600       116
     7.7800        98
     7.8000       106
     7.8200        98
     7.8400       118
     7.8600       112
     7.8800       120
     7.9000       108
     7.9200       114
     7.9400       130
     7.9600       100
     7.9800       102
     8.0000       106
     8.0200       116
     8.0400        96
     8.0600        94
     8.0800       114
     8.1000       100
     8.1200       108
     8.1400       110
     8.1600       114
     8.1800       126
     8.2000       110
     8.2200       118
     8.2400       110
     8.2600       104
     8.2800       102
     8.3000       118
     8.3200       112
     8.3400       110
     8.3600       122
     8.3800       132
     8.4000       104
     8.4200        98
     8.4400       110
     8.4600        98
     8.4800        88
     8.5000       110
     8.5200        94
     8.5400       130
     8.5600       126
     8.5800       100
     8.6000       116
     8.6200       136
     8.6400       116
     8.6600       126
     8.6800       100
     8.7000       108
     8.7200       118
     8.7400       112
     8.7600       124
     8.7800       112
     8.8000       104
     8.8200       106
     8.8400       112
     8.8600       116
     8.8800       114
     8.9000       104
     8.9200       106
     8.9400       122
     8.9600       106
     8.9800        98
     9.0000       138
     9.0200       108
     9.0400       122
     9.0600       102
     9.0800       114
     9.1000       126
     9.1200       112
     9.1400       104
     9.1600       120
     9.1800       100
     9.2000       114
     9.2200       120
     9.2400       106
     9.2600       122
     9.2800       124
     9.3000        88
     9.3200       122
     9.3400       104
     9.3600       104
     9.3800       100
     9.4000       108
     9.4200       118
     9.4400        98
     9.4600       102
     9.4800       110
     9.5000       106
     9.5200       106
     9.5400       128
     9.5600       128
     9.5800       108
     9.6000        88
     9.6200       102
     9.6400        98
     9.6600       116
     9.6800       124
     9.7000       108
     9.7200        90
     9.7400       104
     9.7600       100
     9.7800        96
     9.8000        96
     9.8200       104
     9.8400        94
     9.8600       118
     9.8800       108
     9.9000       128
     9.9200        90
     9.9400       104
     9.9600       116
     9.9800        92
    10.0000        86
    10.0200        92
    10.0400       102
    10.0600       116
    10.0800       112
    10.1000       118
    10.1200        80
    10.1400       102
    10.1600       124
    10.1800       108
    10.2000       110
    10.2200       116
    10.2400       128
    10.2600       104
    10.2800       106
    10.3000       114
    10.3200       116
    10.3400       136
    10.3600       172
    10.3800       176
    10.4000       162
    10.4200       128
    10.4400       134
    10.4600       104
    10.4800       116
    10.5000       106
    10.5200       100
    10.5400        82
    10.5600        90
    10.5800       100
    10.6000       112
    10.6200        78
    10.6400        90
    10.6600        92
    10.6800        90
    10.7000        88
    10.7200       114
    10.7400        92
    10.7600        92
    10.7800        94
    10.8000        74
    10.8200        90
    10.8400       100
    10.8600        74
    10.8800        90
    10.9000        82
    10.9200        86
    10.9400        86
    10.9600        70
    10.9800        84
    11.0000        76
    11.0200        82
    11.0400        84
    11.0600        96
    11.0800        82
    11.1000        86
    11.1200        88
    11.1400        96
    11.1600        78
    11.1800        94
    11.2000        98
    11.2200        68
    11.2400        90
    11.2600        80
    11.2800        82
    11.3000        80
    11.3200        92
    11.3400        84
    11.3600        84
    11.3800        64
    11.4000        86
    11.4200        82
    11.4400        92
    11.4600        82
    11.4800        74
    11.5000        70
    11.5200        86
    11.5400        74
    11.5600        76
    11.5800        78
    11.6000        78
    11.6200        76
    11.6400        86
    11.6600        76
    11.6800        78
    11.7000        78
    11.7200        82
    11.7400        82
    11.7600        72
    11.7800        72
    11.8000        70
    11.8200        84
    11.8400        82
    11.8600        66
    11.8800        82
    11.9000        82
    11.9200        76
    11.9400        62
    11.9600        70
    11.9800        66
    12.0000        94
    12.0200        74
    12.0400        86
    12.0600        76
    12.0800        66
    12.1000        80
    12.1200        72
    12.1400        90
    12.1600        94
    12.1800        74
    12.2000       102
    12.2200        74
    12.2400        76
    12.2600        72
    12.2800        78
    12.3000        58
    12.3200        72
    12.3400        62
    12.3600        84
    12.3800        80
    12.4000        78
    12.4200        78
    12.4400        92
    12.4600        88
    12.4800        74
    12.5000        84
    12.5200        96
    12.5400        68
    12.5600        76
    12.5800        80
    12.6000        66
    12.6200        90
    12.6400        62
    12.6600        82
    12.6800        72
    12.7000        64
    12.7200        70
    12.7400        76
    12.7600        84
    12.7800        72
    12.8000        52
    12.8200        70
    12.8400        66
    12.8600        62
    12.8800        76
    12.9000        52
    12.9200        58
    12.9400        64
    12.9600        74
    12.9800        64
    13.0000        84
    13.0200        54
    13.0400        76
    13.0600        72
    13.0800        78
    13.1000        88
    13.1200        54
    13.1400        70
    13.1600        60
    13.1800        68
    13.2000        78
    13.2200        82
    13.2400        70
    13.2600        82
    13.2800        74
    13.3000        66
    13.3200        70
    13.3400        72
    13.3600        78
    13.3800        80
    13.4000        60
    13.4200        72
    13.4400        82
    13.4600        76
    13.4800        74
    13.5000        74
    13.5200        86
    13.5400        74
    13.5600        54
    13.5800        72
    13.6000        82
    13.6200        80
    13.6400        96
    13.6600        72
    13.6800        96
    13.7000        74
    13.7200        84
    13.7400       100
    13.7600        98
    13.7800       104
    13.8000       124
    13.8200       156
    13.8400       132
    13.8600       106
    13.8800        78
    13.9000        80
    13.9200        90
    13.9400        86
    13.9600        94
    13.9800        72
    14.0000        56
    14.0200        74
    14.0400        66
    14.0600        56
    14.0800        58
    14.1000        68
    14.1200        68
    14.1400        62
    14.1600        60
    14.1800        80
    14.2000        52
    14.2200        58
    14.2400        56
    14.2600        86
    14.2800        76
    14.3000        82
    14.3200        74
    14.3400        78
    14.3600        76
    14.3800        70
    14.4000        56
    14.4200        66
    14.4400        70
    14.4600        88
    14.4800        70
    14.5000        68
    14.5200        80
    14.5400        88
    14.5600       114
    14.5800        80
    14.6000        88
    14.6200        98
    14.6400       116
    14.6600       154
    14.6800       212
    14.7000       208
    14.7200       186
    14.7400       160
    14.7600       130
    14.7800       120
    14.8000       104
    14.8200        82
    14.8400        64
    14.8600        76
    14.8800        52
    14.9000        68
    14.9200        62
    14.9400        58
    14.9600        62
    14.9800        46
    15.0000        58
    15.0200        50
    15.0400        64
    15.0600        50
    15.0800        46
    15.1000        56
    15.1200        70
    15.1400        62
    15.1600        62
    15.1800        48
    15.2000        64
    15.2200        66
    15.2400        52
    15.2600        52
    15.2800        54
    15.3000        50
    15.3200        56
    15.3400        64
    15.3600        46
    15.3800        44
    15.4000        72
    15.4200        50
    15.4400        54
    15.4600        50
    15.4800        56
    15.5000        48
    15.5200        66
    15.5400        68
    15.5600        44
    15.5800        54
    15.6000        68
    15.6200        70
    15.6400        54
    15.6600        68
    15.6800        60
    15.7000        58
    15.7200        70
    15.7400        66
    15.7600        58
    15.7800        60
    15.8000        76
    15.8200        60
    15.8400        64
    15.8600        84
    15.8800        70
    15.9000        62
    15.9200        68
    15.9400        58
    15.9600        70
    15.9800        50
    16.0000        68
    16.0200        60
    16.0400        74
    16.0600        48
    16.0800        54
    16.1000        54
    16.1200        58
    16.1400        70
    16.1600        54
    16.1800        58
    16.2000        66
    16.2200        54
    16.2400        52
    16.2600        54
    16.2800        68
    16.3000        56
    16.3200        46
    16.3400        68
    16.3600        48
    16.3800        54
    16.4000        54
    16.4200        54
    16.4400        54
    16.4600        66
    16.4800        52
    16.5000        58
    16.5200        52
    16.5400        52
    16.5600        48
    16.5800        52
    16.6000        50
    16.6200        56
    16.6400        64
    16.6600        42
    16.6800        54
    16.7000        68
    16.7200        60
    16.7400        68
    16.7600        48
    16.7800        60
    16.8000        66
    16.8200        56
    16.8400        56
    16.8600        48
    16.8800        40
    16.9000        68
    16.9200        54
    16.9400        56
    16.9600        54
    16.9800        54
    17.0000        70
    17.0200        60
    17.0400        40
    17.0600        44
    17.0800        54
    17.1000        52
    17.1200        54
    17.1400        40
    17.1600        42
    17.1800        54
    17.2000        64
    17.2200        58
    17.2400        52
    17.2600        50
    17.2800        46
    17.3000        54
    17.3200        48
    17.3400        40
    17.3600        50
    17.3800        42
    17.4000        48
    17.4200        50
    17.4400        42
    17.4600        48
    17.4800        42
    17.5000        54
    17.5200        52
    17.5400        40
    17.5600        50
    17.5800        48
    17.6000        62
    17.6200        42
    17.6400        48
    17.6600        52
    17.6800        36
    17.7000        42
    17.7200        36
    17.7400        54
    17.7600        54
    17.7800        48
    17.8000        52
    17.8200        46
    17.8400        54
    17.8600        48
    17.8800        56
    17.9000        42
    17.9200        48
    17.9400        50
    17.9600        54
    17.9800        52
    18.0000        46
    18.0200        68
    18.0400        58
    18.0600        58
    18.0800        42
    18.1000        58
    18.1200        70
    18.1400        52
    18.1600        42
    18.1800        60
    18.2000        62
    18.2200        44
    18.2400        52
    18.2600        54
    18.2800        64
    18.3000        52
    18.3200        58
    18.3400        44
    18.3600        54
    18.3800        52
    18.4000        42
    18.4200        48
    18.4400        42
    18.4600        58
    18.4800        48
    18.5000        52
    18.5200        42
    18.5400        52
    18.5600        66
    18.5800        54
    18.6000        48
    18.6200        56
    18.6400        76
    18.6600        50
    18.6800        64
    18.7000        62
    18.7200        62
    18.7400        62
    18.7600        54
    18.7800        60
    18.8000        64
    18.8200        46
    18.8400        80
    18.8600        68
    18.8800        68
    18.9000        58
    18.9200        74
    18.9400        56
    18.9600        52
    18.9800        52
    19.0000        42
    19.0200        50
    19.0400        48
    19.0600        46
    19.0800        54
    19.1000        54
    19.1200        52
    19.1400        64
    19.1600        50
    19.1800        50
    19.2000        46
    19.2200        70
    19.2400        48
    19.2600        54
    19.2800        36
    19.3000        44
    19.3200        50
    19.3400        46
    19.3600        42
    19.3800        60
    19.4000        36
    19.4200        44
    19.4400        42
    19.4600        46
    19.4800        38
    19.5000        48
    19.5200        40
    19.5400        42
    19.5600        52
    19.5800        48
    19.6000        36
    19.6200        54
    19.6400        44
    19.6600        42
    19.6800        40
    19.7000        44
    19.7200        46
    19.7400        44
    19.7600        58
    19.7800        40
    19.8000        50
    19.8200        28
    19.8400        42
    19.8600        56
    19.8800        56
    19.9000        44
    19.9200        38
    19.9400        40
    19.9600        40
    19.9800        58
    20.0000        46
    20.0200        56
    20.0400        64
    20.0600        58
    20.0800        58
    20.1000        56
    20.1200        72
    20.1400        66
    20.1600        94
    20.1800        72
    20.2000        74
    20.2200        92
    20.2400        92
    20.2600        92
    20.2800        72
    20.3000        76
    20.3200        78
    20.3400        52
    20.3600        42
    20.3800        46
