/////////////////////////////////////////////////////////////////////////////////
/// Profile Data Ascii Dump (XRD)                                             ///
/////////////////////////////////////////////////////////////////////////////////

  Group     : Swayze
  Data      : GDS444
  File Name : GDS444.RAW

# Profile Datafile
          comment             = Aragonite-CO 
          date & time         = 08-04-29 08:45:48 

# Measurement Condition
    X-ray tube
          target              = Cu 
          voltage             = 40.0 (kV)
          current             = 30.0 (mA)
    Slits
          divergence slit     = 2.00000 (deg) 
          scatter slit        = 2.00000 (deg) 
          receiving slit      = 0.15000 (mm)  
    Scanning
          drive axis          = Theta-2Theta 
          scan range          =    4.000 -   65.000 
          scan mode           = Continuous Scan 
          scan speed          =   2.0000 (deg/min) 
          sampling pitch      =   0.0200 (deg) 
          preset time         =   0.60 (sec) 

# Data      [ Total No. = 3051 ]
  <2Theta>   <   I   >
     4.0000       198
     4.0200       182
     4.0400       184
     4.0600       186
     4.0800       196
     4.1000       172
     4.1200       186
     4.1400       172
     4.1600       198
     4.1800       170
     4.2000       184
     4.2200       172
     4.2400       178
     4.2600       176
     4.2800       140
     4.3000       170
     4.3200       142
     4.3400       168
     4.3600       144
     4.3800       166
     4.4000       176
     4.4200       172
     4.4400       178
     4.4600       144
     4.4800       138
     4.5000       146
     4.5200       160
     4.5400       150
     4.5600       164
     4.5800       132
     4.6000       148
     4.6200       128
     4.6400       176
     4.6600       164
     4.6800       162
     4.7000       154
     4.7200       174
     4.7400       148
     4.7600       178
     4.7800       164
     4.8000       144
     4.8200       142
     4.8400       156
     4.8600       144
     4.8800       150
     4.9000       150
     4.9200       130
     4.9400       162
     4.9600       178
     4.9800       140
     5.0000       174
     5.0200       150
     5.0400       170
     5.0600       156
     5.0800       158
     5.1000       156
     5.1200       148
     5.1400       158
     5.1600       158
     5.1800       144
     5.2000       152
     5.2200       134
     5.2400       158
     5.2600       156
     5.2800       162
     5.3000       180
     5.3200       140
     5.3400       162
     5.3600       144
     5.3800       158
     5.4000       148
     5.4200       134
     5.4400       168
     5.4600       162
     5.4800       154
     5.5000       154
     5.5200       168
     5.5400       138
     5.5600       152
     5.5800       142
     5.6000       138
     5.6200       178
     5.6400       128
     5.6600       168
     5.6800       154
     5.7000       160
     5.7200       166
     5.7400       154
     5.7600       160
     5.7800       142
     5.8000       156
     5.8200       174
     5.8400       170
     5.8600       132
     5.8800       140
     5.9000       156
     5.9200       138
     5.9400       158
     5.9600       144
     5.9800       170
     6.0000       182
     6.0200       134
     6.0400       136
     6.0600       164
     6.0800       152
     6.1000       152
     6.1200       162
     6.1400       146
     6.1600       132
     6.1800       146
     6.2000       152
     6.2200       128
     6.2400       156
     6.2600       120
     6.2800       138
     6.3000       128
     6.3200       138
     6.3400       136
     6.3600       156
     6.3800       134
     6.4000       130
     6.4200       148
     6.4400       124
     6.4600       142
     6.4800       136
     6.5000       130
     6.5200       130
     6.5400       140
     6.5600       156
     6.5800       124
     6.6000       124
     6.6200       100
     6.6400       110
     6.6600       130
     6.6800       126
     6.7000       118
     6.7200       126
     6.7400       118
     6.7600       130
     6.7800       118
     6.8000       108
     6.8200       102
     6.8400       112
     6.8600       122
     6.8800       118
     6.9000       112
     6.9200       106
     6.9400       130
     6.9600       130
     6.9800       106
     7.0000       110
     7.0200        90
     7.0400        96
     7.0600       102
     7.0800       130
     7.1000       132
     7.1200       104
     7.1400       114
     7.1600       132
     7.1800        96
     7.2000       126
     7.2200       100
     7.2400        90
     7.2600       116
     7.2800       124
     7.3000       114
     7.3200       134
     7.3400       106
     7.3600       108
     7.3800       100
     7.4000       116
     7.4200       126
     7.4400       106
     7.4600       112
     7.4800       112
     7.5000       138
     7.5200       102
     7.5400        94
     7.5600       110
     7.5800        98
     7.6000       102
     7.6200       110
     7.6400       120
     7.6600       106
     7.6800       100
     7.7000       102
     7.7200       104
     7.7400       106
     7.7600        90
     7.7800       136
     7.8000       114
     7.8200       116
     7.8400       126
     7.8600       104
     7.8800       104
     7.9000       104
     7.9200       106
     7.9400        98
     7.9600       118
     7.9800        88
     8.0000        96
     8.0200       108
     8.0400        96
     8.0600        96
     8.0800       108
     8.1000       112
     8.1200        94
     8.1400       104
     8.1600       116
     8.1800       104
     8.2000       122
     8.2200       120
     8.2400       120
     8.2600       102
     8.2800       108
     8.3000       110
     8.3200        88
     8.3400       106
     8.3600        92
     8.3800        88
     8.4000       130
     8.4200       120
     8.4400        82
     8.4600       100
     8.4800       106
     8.5000       112
     8.5200       112
     8.5400       128
     8.5600       112
     8.5800       106
     8.6000       114
     8.6200        92
     8.6400       106
     8.6600       104
     8.6800       108
     8.7000       110
     8.7200       106
     8.7400       106
     8.7600       112
     8.7800       112
     8.8000       108
     8.8200       114
     8.8400       124
     8.8600       102
     8.8800       114
     8.9000       114
     8.9200       108
     8.9400       134
     8.9600       116
     8.9800        94
     9.0000       114
     9.0200       102
     9.0400       108
     9.0600       116
     9.0800        96
     9.1000       114
     9.1200       102
     9.1400       126
     9.1600        90
     9.1800       104
     9.2000        88
     9.2200       120
     9.2400       120
     9.2600        98
     9.2800       116
     9.3000       116
     9.3200       112
     9.3400       110
     9.3600       118
     9.3800       122
     9.4000       118
     9.4200       114
     9.4400       108
     9.4600        94
     9.4800       106
     9.5000       106
     9.5200       106
     9.5400       106
     9.5600       112
     9.5800       128
     9.6000       104
     9.6200       102
     9.6400       106
     9.6600       122
     9.6800        92
     9.7000       104
     9.7200        96
     9.7400        84
     9.7600        78
     9.7800        88
     9.8000       118
     9.8200       100
     9.8400        92
     9.8600        94
     9.8800       102
     9.9000       100
     9.9200        86
     9.9400        98
     9.9600       104
     9.9800       102
    10.0000       104
    10.0200       104
    10.0400       100
    10.0600       102
    10.0800        84
    10.1000        94
    10.1200        84
    10.1400       106
    10.1600       102
    10.1800        98
    10.2000       104
    10.2200       100
    10.2400        88
    10.2600        88
    10.2800       102
    10.3000        82
    10.3200        80
    10.3400       104
    10.3600        86
    10.3800        74
    10.4000        94
    10.4200        92
    10.4400       100
    10.4600        94
    10.4800       102
    10.5000        96
    10.5200        90
    10.5400       102
    10.5600        96
    10.5800        84
    10.6000        84
    10.6200        98
    10.6400        86
    10.6600        92
    10.6800        74
    10.7000       102
    10.7200        88
    10.7400        90
    10.7600        94
    10.7800        86
    10.8000       110
    10.8200        84
    10.8400        84
    10.8600        72
    10.8800       100
    10.9000        86
    10.9200        90
    10.9400        76
    10.9600        84
    10.9800        78
    11.0000        82
    11.0200        68
    11.0400        76
    11.0600        76
    11.0800        94
    11.1000        92
    11.1200        86
    11.1400       104
    11.1600        92
    11.1800        76
    11.2000        78
    11.2200        50
    11.2400        86
    11.2600        82
    11.2800        96
    11.3000        90
    11.3200        82
    11.3400        76
    11.3600        66
    11.3800        86
    11.4000        78
    11.4200        74
    11.4400        82
    11.4600        78
    11.4800        60
    11.5000        74
    11.5200        76
    11.5400        84
    11.5600        74
    11.5800        80
    11.6000        70
    11.6200        62
    11.6400        76
    11.6600        80
    11.6800        94
    11.7000        92
    11.7200        64
    11.7400        74
    11.7600        86
    11.7800        80
    11.8000        82
    11.8200        86
    11.8400        64
    11.8600        68
    11.8800        68
    11.9000        78
    11.9200        68
    11.9400        92
    11.9600        86
    11.9800        54
    12.0000        56
    12.0200        68
    12.0400        76
    12.0600        72
    12.0800        76
    12.1000        80
    12.1200        78
    12.1400       104
    12.1600        70
    12.1800        60
    12.2000        66
    12.2200        78
    12.2400        74
    12.2600        70
    12.2800        82
    12.3000        76
    12.3200        78
    12.3400        76
    12.3600        62
    12.3800        66
    12.4000        56
    12.4200        78
    12.4400        72
    12.4600        70
    12.4800        58
    12.5000        74
    12.5200        60
    12.5400        76
    12.5600        70
    12.5800        70
    12.6000        86
    12.6200        70
    12.6400        66
    12.6600        68
    12.6800        66
    12.7000        70
    12.7200        68
    12.7400        78
    12.7600        76
    12.7800        62
    12.8000        68
    12.8200        56
    12.8400        60
    12.8600        62
    12.8800        64
    12.9000        74
    12.9200        64
    12.9400        66
    12.9600        62
    12.9800        74
    13.0000        56
    13.0200        56
    13.0400        62
    13.0600        50
    13.0800        78
    13.1000        64
    13.1200        72
    13.1400        70
    13.1600        66
    13.1800        66
    13.2000        64
    13.2200        62
    13.2400        60
    13.2600        66
    13.2800        64
    13.3000        68
    13.3200        62
    13.3400        68
    13.3600        58
    13.3800        76
    13.4000        74
    13.4200        54
    13.4400        60
    13.4600        64
    13.4800        54
    13.5000        62
    13.5200        60
    13.5400        56
    13.5600        44
    13.5800        56
    13.6000        62
    13.6200        62
    13.6400        62
    13.6600        64
    13.6800        52
    13.7000        62
    13.7200        54
    13.7400        62
    13.7600        68
    13.7800        60
    13.8000        70
    13.8200        68
    13.8400        58
    13.8600        58
    13.8800        72
    13.9000        58
    13.9200        58
    13.9400        70
    13.9600        72
    13.9800        62
    14.0000        56
    14.0200        62
    14.0400        56
    14.0600        62
    14.0800        58
    14.1000        48
    14.1200        66
    14.1400        58
    14.1600        66
    14.1800        58
    14.2000        64
    14.2200        54
    14.2400        66
    14.2600        50
    14.2800        60
    14.3000        54
    14.3200        52
    14.3400        68
    14.3600        64
    14.3800        58
    14.4000        48
    14.4200        54
    14.4400        54
    14.4600        46
    14.4800        68
    14.5000        56
    14.5200        58
    14.5400        58
    14.5600        62
    14.5800        62
    14.6000        66
    14.6200        60
    14.6400        52
    14.6600        68
    14.6800        56
    14.7000        52
    14.7200        58
    14.7400        62
    14.7600        66
    14.7800        48
    14.8000        56
    14.8200        52
    14.8400        50
    14.8600        52
    14.8800        58
    14.9000        50
    14.9200        50
    14.9400        60
    14.9600        58
    14.9800        74
    15.0000        44
    15.0200        66
    15.0400        62
    15.0600        50
    15.0800        56
    15.1000        64
    15.1200        66
    15.1400        50
    15.1600        48
    15.1800        50
    15.2000        50
    15.2200        54
    15.2400        56
    15.2600        52
    15.2800        52
    15.3000        52
    15.3200        46
    15.3400        48
    15.3600        54
    15.3800        54
    15.4000        52
    15.4200        46
    15.4400        50
    15.4600        46
    15.4800        52
    15.5000        46
    15.5200        40
    15.5400        54
    15.5600        50
    15.5800        68
    15.6000        68
    15.6200        52
    15.6400        38
    15.6600        66
    15.6800        52
    15.7000        60
    15.7200        38
    15.7400        70
    15.7600        44
    15.7800        62
    15.8000        44
    15.8200        56
    15.8400        56
    15.8600        66
    15.8800        40
    15.9000        52
    15.9200        54
    15.9400        56
    15.9600        62
    15.9800        56
    16.0000        36
    16.0200        44
    16.0400        54
    16.0600        48
    16.0800        60
    16.1000        58
    16.1200        36
    16.1400        36
    16.1600        40
    16.1800        48
    16.2000        58
    16.2200        56
    16.2400        50
    16.2600        48
    16.2800        48
    16.3000        50
    16.3200        68
    16.3400        54
    16.3600        44
    16.3800        48
    16.4000        48
    16.4200        44
    16.4400        56
    16.4600        56
    16.4800        42
    16.5000        48
    16.5200        42
    16.5400        46
    16.5600        42
    16.5800        48
    16.6000        48
    16.6200        36
    16.6400        48
    16.6600        56
    16.6800        48
    16.7000        48
    16.7200        62
    16.7400        46
    16.7600        34
    16.7800        42
    16.8000        38
    16.8200        66
    16.8400        42
    16.8600        38
    16.8800        50
    16.9000        56
    16.9200        52
    16.9400        44
    16.9600        38
    16.9800        38
    17.0000        26
    17.0200        54
    17.0400        56
    17.0600        50
    17.0800        44
    17.1000        48
    17.1200        54
    17.1400        40
    17.1600        34
    17.1800        44
    17.2000        52
    17.2200        56
    17.2400        36
    17.2600        44
    17.2800        40
    17.3000        38
    17.3200        58
    17.3400        44
    17.3600        30
    17.3800        28
    17.4000        56
    17.4200        46
    17.4400        46
    17.4600        46
    17.4800        38
    17.5000        46
    17.5200        38
    17.5400        56
    17.5600        56
    17.5800        44
    17.6000        40
    17.6200        46
    17.6400        34
    17.6600        50
    17.6800        42
    17.7000        46
    17.7200        44
    17.7400        44
    17.7600        44
    17.7800        56
    17.8000        54
    17.8200        42
    17.8400        38
    17.8600        40
    17.8800        46
    17.9000        46
    17.9200        64
    17.9400        28
    17.9600        52
    17.9800        44
    18.0000        44
    18.0200        48
    18.0400        36
    18.0600        46
    18.0800        30
    18.1000        46
    18.1200        46
    18.1400        42
    18.1600        40
    18.1800        46
    18.2000        34
    18.2200        32
    18.2400        34
    18.2600        42
    18.2800        40
    18.3000        30
    18.3200        52
    18.3400        42
    18.3600        46
    18.3800        54
    18.4000        54
    18.4200        44
    18.4400        30
    18.4600        32
    18.4800        46
    18.5000        38
    18.5200        40
    18.5400        44
    18.5600        42
    18.5800        32
    18.6000        46
    18.6200        36
    18.6400        56
    18.6600        44
    18.6800        52
    18.7000        34
    18.7200        42
    18.7400        50
    18.7600        50
    18.7800        34
    18.8000        38
    18.8200        44
    18.8400        36
    18.8600        50
    18.8800        40
    18.9000        50
    18.9200        44
    18.9400        34
    18.9600        34
    18.9800        62
    19.0000        48
    19.0200        40
    19.0400        44
    19.0600        46
    19.0800        36
    19.1000        48
    19.1200        44
    19.1400        40
    19.1600        44
    19.1800        38
    19.2000        44
    19.2200        34
    19.2400        52
    19.2600        46
    19.2800        38
    19.3000        48
    19.3200        34
    19.3400        44
    19.3600        30
    19.3800        46
    19.4000        40
    19.4200        40
    19.4400        42
    19.4600        46
    19.4800        38
    19.5000        34
    19.5200        42
    19.5400        44
    19.5600        36
    19.5800        38
    19.6000        44
    19.6200        44
    19.6400        54
    19.6600        40
    19.6800        36
    19.7000        34
    19.7200        42
    19.7400        42
    19.7600        36
    19.7800        46
    19.8000        46
    19.8200        38
    19.8400        40
    19.8600        54
    19.8800        42
    19.9000        44
    19.9200        32
    19.9400        38
    19.9600        28
    19.9800        38
    20.0000        34
    20.0200        36
    20.0400        46
    20.0600        34
    20.0800        40
    20.1000        44
    20.1200        42
    20.1400        40
    20.1600        34
    20.1800        34
    20.2000        40
    20.2200        32
    20.2400        42
    20.2600        38
    20.2800        46
    20.3000        38
    20.3200        44
    20.3400        34
    20.3600        30
    20.3800        48
