/////////////////////////////////////////////////////////////////////////////////
/// Profile Data Ascii Dump (XRD)                                             ///
/////////////////////////////////////////////////////////////////////////////////

  Group     : Swayze
  Data      : GDS41
  File Name : GDS41.RAW

# Profile Datafile
          comment             = Nontronite 
          date & time         = 08-03-24 07:17:59 

# Measurement Condition
    X-ray tube
          target              = Cu 
          voltage             = 40.0 (kV)
          current             = 30.0 (mA)
    Slits
          divergence slit     = 2.00000 (deg) 
          scatter slit        = 2.00000 (deg) 
          receiving slit      = 0.15000 (mm)  
    Scanning
          drive axis          = Theta-2Theta 
          scan range          =    4.000 -   65.000 
          scan mode           = Continuous Scan 
          scan speed          =   2.0000 (deg/min) 
          sampling pitch      =   0.0200 (deg) 
          preset time         =   0.60 (sec) 

# Data      [ Total No. = 3051 ]
  <2Theta>   <   I   >
     4.0000       202
     4.0200       178
     4.0400       218
     4.0600       198
     4.0800       182
     4.1000       194
     4.1200       174
     4.1400       194
     4.1600       188
     4.1800       202
     4.2000       198
     4.2200       162
     4.2400       186
     4.2600       152
     4.2800       168
     4.3000       212
     4.3200       180
     4.3400       180
     4.3600       170
     4.3800       172
     4.4000       188
     4.4200       214
     4.4400       184
     4.4600       196
     4.4800       172
     4.5000       198
     4.5200       180
     4.5400       178
     4.5600       180
     4.5800       188
     4.6000       188
     4.6200       206
     4.6400       150
     4.6600       172
     4.6800       188
     4.7000       174
     4.7200       188
     4.7400       174
     4.7600       156
     4.7800       152
     4.8000       180
     4.8200       172
     4.8400       180
     4.8600       176
     4.8800       196
     4.9000       170
     4.9200       166
     4.9400       178
     4.9600       156
     4.9800       186
     5.0000       178
     5.0200       184
     5.0400       150
     5.0600       170
     5.0800       170
     5.1000       170
     5.1200       176
     5.1400       164
     5.1600       190
     5.1800       168
     5.2000       200
     5.2200       180
     5.2400       198
     5.2600       184
     5.2800       162
     5.3000       196
     5.3200       174
     5.3400       170
     5.3600       190
     5.3800       154
     5.4000       168
     5.4200       196
     5.4400       176
     5.4600       180
     5.4800       188
     5.5000       178
     5.5200       198
     5.5400       180
     5.5600       194
     5.5800       164
     5.6000       176
     5.6200       198
     5.6400       168
     5.6600       204
     5.6800       184
     5.7000       190
     5.7200       198
     5.7400       188
     5.7600       182
     5.7800       184
     5.8000       196
     5.8200       184
     5.8400       192
     5.8600       204
     5.8800       238
     5.9000       214
     5.9200       212
     5.9400       200
     5.9600       212
     5.9800       244
     6.0000       198
     6.0200       242
     6.0400       232
     6.0600       220
     6.0800       234
     6.1000       256
     6.1200       250
     6.1400       236
     6.1600       260
     6.1800       250
     6.2000       244
     6.2200       224
     6.2400       208
     6.2600       198
     6.2800       198
     6.3000       188
     6.3200       184
     6.3400       176
     6.3600       168
     6.3800       158
     6.4000       172
     6.4200       164
     6.4400       190
     6.4600       172
     6.4800       176
     6.5000       166
     6.5200       184
     6.5400       156
     6.5600       174
     6.5800       140
     6.6000       148
     6.6200       164
     6.6400       162
     6.6600       152
     6.6800       160
     6.7000       146
     6.7200       150
     6.7400       174
     6.7600       150
     6.7800       148
     6.8000       134
     6.8200       148
     6.8400       136
     6.8600       132
     6.8800       132
     6.9000       142
     6.9200       138
     6.9400       130
     6.9600       126
     6.9800       152
     7.0000       142
     7.0200       144
     7.0400       114
     7.0600       144
     7.0800       124
     7.1000       122
     7.1200       140
     7.1400       110
     7.1600       140
     7.1800       104
     7.2000       120
     7.2200       156
     7.2400       104
     7.2600       148
     7.2800       108
     7.3000       140
     7.3200       108
     7.3400       122
     7.3600       122
     7.3800       154
     7.4000       122
     7.4200       122
     7.4400       112
     7.4600       110
     7.4800       128
     7.5000       134
     7.5200       126
     7.5400       144
     7.5600       134
     7.5800       108
     7.6000       132
     7.6200       118
     7.6400       128
     7.6600       132
     7.6800       114
     7.7000       126
     7.7200       156
     7.7400       134
     7.7600       154
     7.7800       144
     7.8000       120
     7.8200       142
     7.8400       122
     7.8600       138
     7.8800       136
     7.9000       132
     7.9200       170
     7.9400       148
     7.9600       144
     7.9800       158
     8.0000       144
     8.0200       184
     8.0400       172
     8.0600       164
     8.0800       174
     8.1000       196
     8.1200       186
     8.1400       198
     8.1600       200
     8.1800       236
     8.2000       338
     8.2200       396
     8.2400       494
     8.2600       504
     8.2800       462
     8.3000       360
     8.3200       232
     8.3400       174
     8.3600       162
     8.3800       138
     8.4000       136
     8.4200       144
     8.4400       112
     8.4600       120
     8.4800       122
     8.5000       132
     8.5200       132
     8.5400       134
     8.5600       130
     8.5800       144
     8.6000       122
     8.6200       108
     8.6400       130
     8.6600       112
     8.6800       118
     8.7000       132
     8.7200       150
     8.7400       120
     8.7600       126
     8.7800       120
     8.8000       132
     8.8200       134
     8.8400       124
     8.8600       110
     8.8800       108
     8.9000       122
     8.9200       128
     8.9400       122
     8.9600       120
     8.9800       102
     9.0000       118
     9.0200       126
     9.0400       118
     9.0600       120
     9.0800       126
     9.1000       110
     9.1200       124
     9.1400       110
     9.1600       136
     9.1800       126
     9.2000       138
     9.2200       130
     9.2400       110
     9.2600        98
     9.2800       124
     9.3000       118
     9.3200       122
     9.3400       132
     9.3600       102
     9.3800       128
     9.4000       146
     9.4200       142
     9.4400       116
     9.4600       110
     9.4800       108
     9.5000       138
     9.5200       140
     9.5400       110
     9.5600       116
     9.5800       128
     9.6000       114
     9.6200       128
     9.6400       110
     9.6600       132
     9.6800       104
     9.7000       132
     9.7200       112
     9.7400       132
     9.7600       120
     9.7800       124
     9.8000       132
     9.8200       128
     9.8400       108
     9.8600       122
     9.8800       124
     9.9000       130
     9.9200       122
     9.9400       104
     9.9600       106
     9.9800       118
    10.0000       132
    10.0200       112
    10.0400       110
    10.0600       130
    10.0800       130
    10.1000       128
    10.1200       104
    10.1400       124
    10.1600       114
    10.1800       104
    10.2000       104
    10.2200       128
    10.2400        98
    10.2600       102
    10.2800       120
    10.3000       112
    10.3200       132
    10.3400       100
    10.3600       118
    10.3800       114
    10.4000       100
    10.4200       112
    10.4400       124
    10.4600       116
    10.4800       104
    10.5000       122
    10.5200       114
    10.5400        98
    10.5600       112
    10.5800       116
    10.6000       126
    10.6200       122
    10.6400       102
    10.6600       104
    10.6800       104
    10.7000       110
    10.7200       124
    10.7400       114
    10.7600       102
    10.7800       102
    10.8000       112
    10.8200        94
    10.8400       112
    10.8600       138
    10.8800       110
    10.9000       112
    10.9200       114
    10.9400       112
    10.9600       114
    10.9800       146
    11.0000       136
    11.0200       128
    11.0400       112
    11.0600       154
    11.0800       150
    11.1000       148
    11.1200       162
    11.1400       206
    11.1600       236
    11.1800       208
    11.2000       174
    11.2200       176
    11.2400       188
    11.2600       214
    11.2800       210
    11.3000       208
    11.3200       226
    11.3400       212
    11.3600       234
    11.3800       270
    11.4000       296
    11.4200       342
    11.4400       394
    11.4600       392
    11.4800       530
    11.5000       600
    11.5200       626
    11.5400       726
    11.5600       904
    11.5800       952
    11.6000       886
    11.6200       832
    11.6400       528
    11.6600       390
    11.6800       220
    11.7000       174
    11.7200       138
    11.7400       130
    11.7600       150
    11.7800       128
    11.8000       156
    11.8200       136
    11.8400       126
    11.8600       118
    11.8800       110
    11.9000       142
    11.9200       136
    11.9400       120
    11.9600       118
    11.9800       146
    12.0000       120
    12.0200       146
    12.0400       140
    12.0600       138
    12.0800       140
    12.1000       152
    12.1200       170
    12.1400       138
    12.1600       160
    12.1800       188
    12.2000       170
    12.2200       210
    12.2400       240
    12.2600       194
    12.2800       248
    12.3000       254
    12.3200       256
    12.3400       264
    12.3600       294
    12.3800       298
    12.4000       278
    12.4200       270
    12.4400       282
    12.4600       256
    12.4800       248
    12.5000       260
    12.5200       292
    12.5400       308
    12.5600       336
    12.5800       366
    12.6000       378
    12.6200       592
    12.6400       794
    12.6600       786
    12.6800       590
    12.7000       392
    12.7200       256
    12.7400       244
    12.7600       170
    12.7800       184
    12.8000       182
    12.8200       166
    12.8400       308
    12.8600       368
    12.8800       402
    12.9000       460
    12.9200       426
    12.9400       486
    12.9600       492
    12.9800       504
    13.0000       700
    13.0200       862
    13.0400      1084
    13.0600      1182
    13.0800      1044
    13.1000       752
    13.1200       530
    13.1400       350
    13.1600       232
    13.1800       158
    13.2000       122
    13.2200       120
    13.2400       106
    13.2600       102
    13.2800       108
    13.3000       100
    13.3200        88
    13.3400        92
    13.3600        94
    13.3800        82
    13.4000        94
    13.4200        84
    13.4400        70
    13.4600        78
    13.4800        82
    13.5000        82
    13.5200        84
    13.5400        76
    13.5600        82
    13.5800        82
    13.6000        66
    13.6200        80
    13.6400        80
    13.6600        88
    13.6800        76
    13.7000        94
    13.7200        96
    13.7400        84
    13.7600        76
    13.7800        86
    13.8000        68
    13.8200        70
    13.8400        90
    13.8600        88
    13.8800        68
    13.9000        62
    13.9200        80
    13.9400        76
    13.9600        72
    13.9800        90
    14.0000        84
    14.0200        62
    14.0400        74
    14.0600        80
    14.0800        78
    14.1000        84
    14.1200        74
    14.1400        74
    14.1600        84
    14.1800        68
    14.2000        76
    14.2200        66
    14.2400        78
    14.2600        68
    14.2800        72
    14.3000        76
    14.3200        78
    14.3400        78
    14.3600        74
    14.3800        84
    14.4000        88
    14.4200        86
    14.4400        74
    14.4600        62
    14.4800        84
    14.5000        80
    14.5200        72
    14.5400        72
    14.5600        80
    14.5800        72
    14.6000        72
    14.6200       106
    14.6400        76
    14.6600        78
    14.6800        70
    14.7000        72
    14.7200        60
    14.7400        64
    14.7600        80
    14.7800        72
    14.8000        78
    14.8200        74
    14.8400        82
    14.8600        88
    14.8800        84
    14.9000        76
    14.9200       110
    14.9400        64
    14.9600        78
    14.9800        74
    15.0000        80
    15.0200        90
    15.0400        86
    15.0600        96
    15.0800        88
    15.1000       100
    15.1200       104
    15.1400       108
    15.1600       124
    15.1800       160
    15.2000       172
    15.2200       196
    15.2400       188
    15.2600       178
    15.2800       194
    15.3000       202
    15.3200       240
    15.3400       274
    15.3600       306
    15.3800       326
    15.4000       300
    15.4200       326
    15.4400       258
    15.4600       268
    15.4800       174
    15.5000       130
    15.5200       100
    15.5400        92
    15.5600        96
    15.5800        86
    15.6000        84
    15.6200        68
    15.6400        80
    15.6600        82
    15.6800        84
    15.7000        80
    15.7200        92
    15.7400        92
    15.7600        82
    15.7800        80
    15.8000        60
    15.8200        84
    15.8400        70
    15.8600        80
    15.8800        78
    15.9000        78
    15.9200        88
    15.9400        80
    15.9600        68
    15.9800        86
    16.0000        88
    16.0200       102
    16.0400        80
    16.0600        78
    16.0800        88
    16.1000        94
    16.1200       106
    16.1400       128
    16.1600       138
    16.1800       124
    16.2000       150
    16.2200       156
    16.2400       138
    16.2600       170
    16.2800       144
    16.3000       144
    16.3200       150
    16.3400       126
    16.3600       118
    16.3800       112
    16.4000       122
    16.4200       116
    16.4400       132
    16.4600       146
    16.4800       168
    16.5000       268
    16.5200       364
    16.5400       440
    16.5600       636
    16.5800       902
    16.6000      1120
    16.6200      1182
    16.6400      1044
    16.6600       824
    16.6800       602
    16.7000       392
    16.7200       268
    16.7400       144
    16.7600       136
    16.7800        98
    16.8000       106
    16.8200       114
    16.8400        90
    16.8600       112
    16.8800       114
    16.9000        98
    16.9200        90
    16.9400        90
    16.9600        74
    16.9800        68
    17.0000        70
    17.0200        72
    17.0400        72
    17.0600        74
    17.0800        66
    17.1000        76
    17.1200        90
    17.1400        70
    17.1600        80
    17.1800        72
    17.2000        84
    17.2200        78
    17.2400        80
    17.2600       102
    17.2800        72
    17.3000        76
    17.3200        82
    17.3400        88
    17.3600        56
    17.3800        84
    17.4000        80
    17.4200        84
    17.4400        72
    17.4600        70
    17.4800        82
    17.5000        78
    17.5200        66
    17.5400        66
    17.5600        76
    17.5800        80
    17.6000        84
    17.6200       100
    17.6400        84
    17.6600        86
    17.6800       108
    17.7000        72
    17.7200        80
    17.7400        68
    17.7600        88
    17.7800        98
    17.8000       106
    17.8200       110
    17.8400       146
    17.8600       172
    17.8800       214
    17.9000       166
    17.9200       152
    17.9400       164
    17.9600       160
    17.9800       142
    18.0000       178
    18.0200       180
    18.0400       180
    18.0600       178
    18.0800       168
    18.1000       126
    18.1200       116
    18.1400       120
    18.1600       110
    18.1800       102
    18.2000       108
    18.2200       102
    18.2400       106
    18.2600       126
    18.2800       116
    18.3000       136
    18.3200       124
    18.3400       140
    18.3600       132
    18.3800       158
    18.4000       170
    18.4200       164
    18.4400       192
    18.4600       214
    18.4800       246
    18.5000       258
    18.5200       318
    18.5400       412
    18.5600       448
    18.5800       568
    18.6000       802
    18.6200      1022
    18.6400       992
    18.6600      1124
    18.6800      1266
    18.7000      1346
    18.7200      1608
    18.7400      1638
    18.7600      1282
    18.7800      1036
    18.8000       704
    18.8200       452
    18.8400       288
    18.8600       208
    18.8800       144
    18.9000       158
    18.9200       138
    18.9400       146
    18.9600       158
    18.9800       140
    19.0000       156
    19.0200       162
    19.0400       164
    19.0600       188
    19.0800       184
    19.1000       202
    19.1200       168
    19.1400       192
    19.1600       212
    19.1800       244
    19.2000       226
    19.2200       260
    19.2400       304
    19.2600       340
    19.2800       392
    19.3000       370
    19.3200       374
    19.3400       378
    19.3600       424
    19.3800       506
    19.4000       588
    19.4200       670
    19.4400       702
    19.4600       770
    19.4800       802
    19.5000       832
    19.5200       844
    19.5400       858
    19.5600       658
    19.5800       534
    19.6000       392
    19.6200       266
    19.6400       208
    19.6600       190
    19.6800       154
    19.7000       164
    19.7200       150
    19.7400       144
    19.7600       128
    19.7800       128
    19.8000       140
    19.8200       126
    19.8400       118
    19.8600       112
    19.8800       116
    19.9000       124
    19.9200       132
    19.9400       140
    19.9600       100
    19.9800       142
    20.0000       130
    20.0200       162
    20.0400       186
    20.0600       206
    20.0800       224
    20.1000       340
    20.1200       584
    20.1400       646
    20.1600       538
    20.1800       592
    20.2000       516
    20.2200       500
    20.2400       478
    20.2600       664
    20.2800       694
    20.3000       520
    20.3200       476
    20.3400       376
    20.3600       266
    20.3800       210
