/////////////////////////////////////////////////////////////////////////////////
/// Profile Data Ascii Dump (XRD)                                             ///
/////////////////////////////////////////////////////////////////////////////////

  Group     : Swayze
  Data      : GDS55
  File Name : GDS55.RAW

# Profile Datafile
          comment             = Na-bicarb 
          date & time         = 08-03-13 06:52:47 

# Measurement Condition
    X-ray tube
          target              = Cu 
          voltage             = 40.0 (kV)
          current             = 30.0 (mA)
    Slits
          divergence slit     = 2.00000 (deg) 
          scatter slit        = 2.00000 (deg) 
          receiving slit      = 0.15000 (mm)  
    Scanning
          drive axis          = Theta-2Theta 
          scan range          =    4.000 -   65.000 
          scan mode           = Continuous Scan 
          scan speed          =   2.0000 (deg/min) 
          sampling pitch      =   0.0200 (deg) 
          preset time         =   0.60 (sec) 

# Data      [ Total No. = 3051 ]
  <2Theta>   <   I   >
     4.0000       164
     4.0200       196
     4.0400       210
     4.0600       176
     4.0800       196
     4.1000       206
     4.1200       168
     4.1400       174
     4.1600       190
     4.1800       176
     4.2000       156
     4.2200       180
     4.2400       168
     4.2600       180
     4.2800       180
     4.3000       172
     4.3200       170
     4.3400       190
     4.3600       186
     4.3800       170
     4.4000       148
     4.4200       170
     4.4400       144
     4.4600       172
     4.4800       176
     4.5000       174
     4.5200       170
     4.5400       160
     4.5600       154
     4.5800       156
     4.6000       158
     4.6200       138
     4.6400       176
     4.6600       158
     4.6800       172
     4.7000       170
     4.7200       168
     4.7400       160
     4.7600       144
     4.7800       136
     4.8000       158
     4.8200       160
     4.8400       170
     4.8600       154
     4.8800       124
     4.9000       132
     4.9200       154
     4.9400       174
     4.9600       152
     4.9800       164
     5.0000       126
     5.0200       140
     5.0400       154
     5.0600       132
     5.0800       172
     5.1000       148
     5.1200       152
     5.1400       144
     5.1600       160
     5.1800       162
     5.2000       178
     5.2200       140
     5.2400       152
     5.2600       168
     5.2800       160
     5.3000       134
     5.3200       150
     5.3400       156
     5.3600       182
     5.3800       150
     5.4000       142
     5.4200       168
     5.4400       136
     5.4600       154
     5.4800       128
     5.5000       168
     5.5200       150
     5.5400       144
     5.5600       174
     5.5800       160
     5.6000       172
     5.6200       148
     5.6400       164
     5.6600       144
     5.6800       152
     5.7000       166
     5.7200       140
     5.7400       160
     5.7600       152
     5.7800       144
     5.8000       172
     5.8200       176
     5.8400       164
     5.8600       164
     5.8800       148
     5.9000       178
     5.9200       160
     5.9400       164
     5.9600       150
     5.9800       168
     6.0000       154
     6.0200       154
     6.0400       156
     6.0600       154
     6.0800       150
     6.1000       164
     6.1200       138
     6.1400       138
     6.1600       150
     6.1800       152
     6.2000       140
     6.2200       154
     6.2400       130
     6.2600       152
     6.2800       144
     6.3000       142
     6.3200       154
     6.3400       132
     6.3600       154
     6.3800       144
     6.4000       136
     6.4200       122
     6.4400       130
     6.4600       142
     6.4800       142
     6.5000       122
     6.5200       136
     6.5400       132
     6.5600       128
     6.5800       126
     6.6000       140
     6.6200       138
     6.6400       152
     6.6600       136
     6.6800       118
     6.7000       150
     6.7200       130
     6.7400       130
     6.7600       120
     6.7800       132
     6.8000       148
     6.8200       120
     6.8400       118
     6.8600       112
     6.8800       132
     6.9000       116
     6.9200       144
     6.9400       110
     6.9600       126
     6.9800       106
     7.0000       140
     7.0200       134
     7.0400       116
     7.0600       120
     7.0800       124
     7.1000       106
     7.1200       132
     7.1400       116
     7.1600       136
     7.1800       118
     7.2000       108
     7.2200       116
     7.2400       110
     7.2600       130
     7.2800       112
     7.3000       116
     7.3200       116
     7.3400       100
     7.3600       114
     7.3800        98
     7.4000       120
     7.4200       134
     7.4400       114
     7.4600       110
     7.4800       138
     7.5000       102
     7.5200       114
     7.5400       110
     7.5600       118
     7.5800       100
     7.6000       104
     7.6200       110
     7.6400       108
     7.6600        92
     7.6800       120
     7.7000       120
     7.7200       116
     7.7400       124
     7.7600       128
     7.7800       132
     7.8000       110
     7.8200       122
     7.8400       108
     7.8600        98
     7.8800       110
     7.9000       114
     7.9200        94
     7.9400       112
     7.9600       118
     7.9800        94
     8.0000        96
     8.0200       116
     8.0400       106
     8.0600       124
     8.0800       136
     8.1000       146
     8.1200       120
     8.1400       112
     8.1600       104
     8.1800       104
     8.2000       114
     8.2200       118
     8.2400       146
     8.2600       102
     8.2800       120
     8.3000       130
     8.3200       110
     8.3400       110
     8.3600       116
     8.3800       126
     8.4000       110
     8.4200        92
     8.4400       108
     8.4600       122
     8.4800       106
     8.5000       100
     8.5200       122
     8.5400       132
     8.5600       122
     8.5800       128
     8.6000       110
     8.6200       108
     8.6400       120
     8.6600       120
     8.6800       100
     8.7000       122
     8.7200       116
     8.7400       110
     8.7600       128
     8.7800       130
     8.8000       114
     8.8200       110
     8.8400       102
     8.8600       102
     8.8800       104
     8.9000       118
     8.9200       114
     8.9400       120
     8.9600        90
     8.9800       124
     9.0000       124
     9.0200       154
     9.0400       116
     9.0600       106
     9.0800       138
     9.1000       122
     9.1200       110
     9.1400       104
     9.1600       106
     9.1800       124
     9.2000       132
     9.2200       134
     9.2400       124
     9.2600       122
     9.2800       148
     9.3000       114
     9.3200       114
     9.3400       104
     9.3600       132
     9.3800       118
     9.4000       112
     9.4200       104
     9.4400       132
     9.4600       112
     9.4800       122
     9.5000       112
     9.5200       106
     9.5400       104
     9.5600       116
     9.5800       120
     9.6000       108
     9.6200       116
     9.6400       114
     9.6600       142
     9.6800       120
     9.7000       108
     9.7200       132
     9.7400       138
     9.7600       132
     9.7800       140
     9.8000       126
     9.8200       182
     9.8400       146
     9.8600       142
     9.8800       134
     9.9000       144
     9.9200       132
     9.9400        98
     9.9600       104
     9.9800       120
    10.0000        80
    10.0200       106
    10.0400        96
    10.0600       120
    10.0800        98
    10.1000       126
    10.1200        98
    10.1400       140
    10.1600       102
    10.1800       106
    10.2000       112
    10.2200        92
    10.2400        96
    10.2600        90
    10.2800        86
    10.3000       106
    10.3200        82
    10.3400        80
    10.3600       106
    10.3800       102
    10.4000        96
    10.4200       120
    10.4400       100
    10.4600       104
    10.4800        88
    10.5000        96
    10.5200       116
    10.5400        84
    10.5600       108
    10.5800        98
    10.6000        94
    10.6200        96
    10.6400       108
    10.6600        98
    10.6800       104
    10.7000        90
    10.7200       108
    10.7400        96
    10.7600       106
    10.7800        80
    10.8000        86
    10.8200        94
    10.8400        78
    10.8600        90
    10.8800        94
    10.9000       100
    10.9200        96
    10.9400        86
    10.9600       116
    10.9800        80
    11.0000        88
    11.0200        98
    11.0400        94
    11.0600       102
    11.0800        92
    11.1000        96
    11.1200        96
    11.1400       102
    11.1600        88
    11.1800       124
    11.2000       100
    11.2200        74
    11.2400        88
    11.2600        82
    11.2800        84
    11.3000        90
    11.3200        90
    11.3400        78
    11.3600        74
    11.3800        76
    11.4000       102
    11.4200        90
    11.4400        80
    11.4600        96
    11.4800        82
    11.5000        74
    11.5200        82
    11.5400        74
    11.5600        98
    11.5800        90
    11.6000        86
    11.6200        84
    11.6400        84
    11.6600        76
    11.6800        92
    11.7000       102
    11.7200        86
    11.7400        84
    11.7600        96
    11.7800        86
    11.8000        82
    11.8200        66
    11.8400        84
    11.8600        86
    11.8800        80
    11.9000        88
    11.9200        84
    11.9400        94
    11.9600        74
    11.9800        84
    12.0000        68
    12.0200        94
    12.0400        74
    12.0600        96
    12.0800       104
    12.1000        80
    12.1200        76
    12.1400        78
    12.1600        82
    12.1800        86
    12.2000        74
    12.2200        80
    12.2400        74
    12.2600        90
    12.2800        80
    12.3000        78
    12.3200        90
    12.3400        72
    12.3600        86
    12.3800        98
    12.4000        80
    12.4200        76
    12.4400        94
    12.4600        94
    12.4800        76
    12.5000        86
    12.5200        92
    12.5400        92
    12.5600        94
    12.5800        78
    12.6000        88
    12.6200        78
    12.6400        72
    12.6600        64
    12.6800        76
    12.7000        84
    12.7200        52
    12.7400        82
    12.7600        80
    12.7800        68
    12.8000        80
    12.8200        62
    12.8400        80
    12.8600        74
    12.8800        68
    12.9000        86
    12.9200        80
    12.9400        64
    12.9600        68
    12.9800        80
    13.0000        72
    13.0200        84
    13.0400        80
    13.0600        82
    13.0800        68
    13.1000        76
    13.1200        68
    13.1400        66
    13.1600        76
    13.1800        82
    13.2000        78
    13.2200        68
    13.2400        56
    13.2600        82
    13.2800        70
    13.3000        72
    13.3200        62
    13.3400        56
    13.3600        76
    13.3800        58
    13.4000        78
    13.4200        78
    13.4400        68
    13.4600        88
    13.4800        56
    13.5000        60
    13.5200        64
    13.5400        74
    13.5600        88
    13.5800        70
    13.6000        66
    13.6200        70
    13.6400        66
    13.6600        66
    13.6800        80
    13.7000        76
    13.7200        64
    13.7400        64
    13.7600        68
    13.7800        78
    13.8000        60
    13.8200        60
    13.8400        56
    13.8600        66
    13.8800        70
    13.9000        74
    13.9200        66
    13.9400        66
    13.9600        62
    13.9800        70
    14.0000        62
    14.0200        64
    14.0400        76
    14.0600        62
    14.0800        64
    14.1000        66
    14.1200        62
    14.1400        76
    14.1600        72
    14.1800        64
    14.2000        58
    14.2200        74
    14.2400        76
    14.2600        72
    14.2800        74
    14.3000        80
    14.3200        80
    14.3400        78
    14.3600        70
    14.3800        72
    14.4000        60
    14.4200        66
    14.4400        80
    14.4600        74
    14.4800        86
    14.5000       100
    14.5200        72
    14.5400        86
    14.5600        98
    14.5800       100
    14.6000        92
    14.6200       110
    14.6400       106
    14.6600       106
    14.6800       116
    14.7000       106
    14.7200       100
    14.7400       102
    14.7600       128
    14.7800       130
    14.8000       172
    14.8200       182
    14.8400       190
    14.8600       220
    14.8800       264
    14.9000       248
    14.9200       296
    14.9400       260
    14.9600       220
    14.9800       198
    15.0000       142
    15.0200       122
    15.0400       106
    15.0600        82
    15.0800        98
    15.1000        64
    15.1200        64
    15.1400        84
    15.1600        74
    15.1800        58
    15.2000        66
    15.2200        64
    15.2400        64
    15.2600        60
    15.2800        58
    15.3000        78
    15.3200        46
    15.3400        72
    15.3600        48
    15.3800        64
    15.4000        64
    15.4200        62
    15.4400        62
    15.4600        52
    15.4800        64
    15.5000        70
    15.5200        68
    15.5400        62
    15.5600        64
    15.5800        66
    15.6000        60
    15.6200        68
    15.6400        64
    15.6600        66
    15.6800        72
    15.7000        54
    15.7200        66
    15.7400        56
    15.7600        72
    15.7800        78
    15.8000        60
    15.8200        76
    15.8400        58
    15.8600        60
    15.8800        66
    15.9000        66
    15.9200        70
    15.9400        66
    15.9600        62
    15.9800        62
    16.0000        58
    16.0200        50
    16.0400        66
    16.0600        78
    16.0800        60
    16.1000        68
    16.1200        68
    16.1400        82
    16.1600        54
    16.1800        58
    16.2000        54
    16.2200        80
    16.2400        62
    16.2600        58
    16.2800        66
    16.3000        56
    16.3200        62
    16.3400        60
    16.3600        60
    16.3800        60
    16.4000        58
    16.4200        60
    16.4400        60
    16.4600        52
    16.4800        88
    16.5000        76
    16.5200        68
    16.5400        56
    16.5600        76
    16.5800        62
    16.6000        60
    16.6200        56
    16.6400        56
    16.6600        56
    16.6800        70
    16.7000        80
    16.7200        62
    16.7400        54
    16.7600        58
    16.7800        62
    16.8000        66
    16.8200        66
    16.8400        74
    16.8600        70
    16.8800        48
    16.9000        54
    16.9200        52
    16.9400        70
    16.9600        46
    16.9800        54
    17.0000        76
    17.0200        60
    17.0400        80
    17.0600        70
    17.0800        66
    17.1000        56
    17.1200        64
    17.1400        52
    17.1600        64
    17.1800        66
    17.2000        56
    17.2200        50
    17.2400        70
    17.2600        58
    17.2800        70
    17.3000        70
    17.3200        66
    17.3400        76
    17.3600        64
    17.3800        70
    17.4000        70
    17.4200        60
    17.4400        80
    17.4600        70
    17.4800        60
    17.5000        76
    17.5200        78
    17.5400        76
    17.5600        64
    17.5800        72
    17.6000        74
    17.6200        72
    17.6400        70
    17.6600        72
    17.6800        74
    17.7000        70
    17.7200        80
    17.7400        80
    17.7600        74
    17.7800        72
    17.8000        86
    17.8200        68
    17.8400        92
    17.8600        94
    17.8800       100
    17.9000       112
    17.9200       134
    17.9400       140
    17.9600       152
    17.9800       172
    18.0000       188
    18.0200       220
    18.0400       238
    18.0600       268
    18.0800       312
    18.1000       386
    18.1200       460
    18.1400       578
    18.1600       782
    18.1800       958
    18.2000      1106
    18.2200      1248
    18.2400      1380
    18.2600      1476
    18.2800      1308
    18.3000      1052
    18.3200       882
    18.3400       540
    18.3600       368
    18.3800       202
    18.4000       146
    18.4200       118
    18.4400       120
    18.4600       100
    18.4800        98
    18.5000       122
    18.5200       100
    18.5400       100
    18.5600       100
    18.5800       108
    18.6000       100
    18.6200        84
    18.6400        92
    18.6600        92
    18.6800       110
    18.7000       102
    18.7200        80
    18.7400        60
    18.7600        72
    18.7800        66
    18.8000        58
    18.8200        56
    18.8400        48
    18.8600        56
    18.8800        66
    18.9000        52
    18.9200        58
    18.9400        62
    18.9600        64
    18.9800        64
    19.0000        56
    19.0200        66
    19.0400        64
    19.0600        50
    19.0800        56
    19.1000        64
    19.1200        54
    19.1400        56
    19.1600        50
    19.1800        40
    19.2000        48
    19.2200        42
    19.2400        62
    19.2600        64
    19.2800        48
    19.3000        62
    19.3200        44
    19.3400        70
    19.3600        50
    19.3800        56
    19.4000        62
    19.4200        58
    19.4400        70
    19.4600        48
    19.4800        54
    19.5000        62
    19.5200        54
    19.5400        44
    19.5600        40
    19.5800        58
    19.6000        50
    19.6200        46
    19.6400        46
    19.6600        44
    19.6800        60
    19.7000        56
    19.7200        64
    19.7400        50
    19.7600        52
    19.7800        58
    19.8000        60
    19.8200        46
    19.8400        52
    19.8600        66
    19.8800        64
    19.9000        62
    19.9200        56
    19.9400        56
    19.9600        64
    19.9800        58
    20.0000        58
    20.0200        50
    20.0400        58
    20.0600        46
    20.0800        48
    20.1000        60
    20.1200        50
    20.1400        52
    20.1600        54
    20.1800        50
    20.2000        58
    20.2200        42
    20.2400        50
    20.2600        54
    20.2800        62
    20.3000        46
    20.3200        58
    20.3400        58
    20.3600        72
    20.3800        66
