/////////////////////////////////////////////////////////////////////////////////
/// Profile Data Ascii Dump (XRD)                                             ///
/////////////////////////////////////////////////////////////////////////////////

  Group     : Swayze
  Data      : GDS681
  File Name : GDS681.RAW

# Profile Datafile
          comment             = Magnesite 
          date & time         = 08-03-12 07:31:19 

# Measurement Condition
    X-ray tube
          target              = Cu 
          voltage             = 40.0 (kV)
          current             = 30.0 (mA)
    Slits
          divergence slit     = 2.00000 (deg) 
          scatter slit        = 2.00000 (deg) 
          receiving slit      = 0.15000 (mm)  
    Scanning
          drive axis          = Theta-2Theta 
          scan range          =    4.000 -   65.000 
          scan mode           = Continuous Scan 
          scan speed          =   2.0000 (deg/min) 
          sampling pitch      =   0.0200 (deg) 
          preset time         =   0.60 (sec) 

# Data      [ Total No. = 3051 ]
  <2Theta>   <   I   >
     4.0000       236
     4.0200       260
     4.0400       280
     4.0600       232
     4.0800       244
     4.1000       244
     4.1200       258
     4.1400       216
     4.1600       234
     4.1800       202
     4.2000       222
     4.2200       244
     4.2400       228
     4.2600       252
     4.2800       220
     4.3000       218
     4.3200       240
     4.3400       210
     4.3600       244
     4.3800       220
     4.4000       216
     4.4200       238
     4.4400       202
     4.4600       208
     4.4800       214
     4.5000       188
     4.5200       210
     4.5400       212
     4.5600       230
     4.5800       242
     4.6000       272
     4.6200       226
     4.6400       232
     4.6600       220
     4.6800       230
     4.7000       210
     4.7200       216
     4.7400       208
     4.7600       238
     4.7800       212
     4.8000       206
     4.8200       204
     4.8400       200
     4.8600       196
     4.8800       190
     4.9000       202
     4.9200       206
     4.9400       208
     4.9600       214
     4.9800       212
     5.0000       224
     5.0200       212
     5.0400       194
     5.0600       190
     5.0800       202
     5.1000       208
     5.1200       204
     5.1400       208
     5.1600       190
     5.1800       202
     5.2000       202
     5.2200       228
     5.2400       208
     5.2600       210
     5.2800       194
     5.3000       208
     5.3200       200
     5.3400       198
     5.3600       202
     5.3800       178
     5.4000       204
     5.4200       212
     5.4400       194
     5.4600       198
     5.4800       228
     5.5000       224
     5.5200       224
     5.5400       218
     5.5600       210
     5.5800       206
     5.6000       188
     5.6200       202
     5.6400       202
     5.6600       208
     5.6800       192
     5.7000       196
     5.7200       178
     5.7400       206
     5.7600       204
     5.7800       196
     5.8000       232
     5.8200       194
     5.8400       178
     5.8600       180
     5.8800       206
     5.9000       214
     5.9200       184
     5.9400       196
     5.9600       214
     5.9800       200
     6.0000       204
     6.0200       192
     6.0400       232
     6.0600       222
     6.0800       194
     6.1000       186
     6.1200       192
     6.1400       220
     6.1600       168
     6.1800       172
     6.2000       198
     6.2200       202
     6.2400       216
     6.2600       206
     6.2800       190
     6.3000       212
     6.3200       204
     6.3400       210
     6.3600       218
     6.3800       212
     6.4000       164
     6.4200       194
     6.4400       194
     6.4600       192
     6.4800       168
     6.5000       192
     6.5200       208
     6.5400       180
     6.5600       180
     6.5800       168
     6.6000       182
     6.6200       172
     6.6400       192
     6.6600       202
     6.6800       206
     6.7000       188
     6.7200       194
     6.7400       154
     6.7600       190
     6.7800       168
     6.8000       182
     6.8200       170
     6.8400       174
     6.8600       158
     6.8800       166
     6.9000       188
     6.9200       204
     6.9400       168
     6.9600       180
     6.9800       192
     7.0000       158
     7.0200       174
     7.0400       188
     7.0600       158
     7.0800       142
     7.1000       170
     7.1200       198
     7.1400       152
     7.1600       172
     7.1800       154
     7.2000       158
     7.2200       150
     7.2400       170
     7.2600       176
     7.2800       152
     7.3000       164
     7.3200       134
     7.3400       150
     7.3600       172
     7.3800       164
     7.4000       144
     7.4200       156
     7.4400       162
     7.4600       164
     7.4800       144
     7.5000       156
     7.5200       138
     7.5400       158
     7.5600       146
     7.5800       146
     7.6000       142
     7.6200       138
     7.6400       152
     7.6600       150
     7.6800       170
     7.7000       154
     7.7200       128
     7.7400       160
     7.7600       144
     7.7800       124
     7.8000       172
     7.8200       154
     7.8400       144
     7.8600       160
     7.8800       138
     7.9000       126
     7.9200       144
     7.9400       108
     7.9600       144
     7.9800       148
     8.0000       172
     8.0200       150
     8.0400       168
     8.0600       136
     8.0800       146
     8.1000       132
     8.1200       130
     8.1400       126
     8.1600       130
     8.1800       154
     8.2000       102
     8.2200       140
     8.2400       150
     8.2600       148
     8.2800       152
     8.3000       150
     8.3200       154
     8.3400       142
     8.3600       142
     8.3800       156
     8.4000       154
     8.4200       156
     8.4400       148
     8.4600       164
     8.4800       146
     8.5000       166
     8.5200       124
     8.5400       142
     8.5600       128
     8.5800       134
     8.6000       140
     8.6200       122
     8.6400       160
     8.6600       144
     8.6800       138
     8.7000       142
     8.7200       160
     8.7400       144
     8.7600       156
     8.7800       152
     8.8000       146
     8.8200       142
     8.8400       110
     8.8600       134
     8.8800       154
     8.9000       146
     8.9200       138
     8.9400       142
     8.9600       158
     8.9800       130
     9.0000       144
     9.0200       146
     9.0400       144
     9.0600       140
     9.0800       122
     9.1000       156
     9.1200       154
     9.1400       114
     9.1600       156
     9.1800       146
     9.2000       132
     9.2200       146
     9.2400       132
     9.2600       138
     9.2800       124
     9.3000       134
     9.3200       140
     9.3400       152
     9.3600       126
     9.3800       132
     9.4000       118
     9.4200       120
     9.4400       124
     9.4600       114
     9.4800       114
     9.5000       116
     9.5200       122
     9.5400       142
     9.5600       132
     9.5800       110
     9.6000       140
     9.6200       124
     9.6400       124
     9.6600       130
     9.6800       110
     9.7000       126
     9.7200       128
     9.7400       134
     9.7600       108
     9.7800       110
     9.8000       122
     9.8200       116
     9.8400       134
     9.8600       142
     9.8800       120
     9.9000       112
     9.9200       120
     9.9400       120
     9.9600       132
     9.9800       126
    10.0000       104
    10.0200       122
    10.0400       128
    10.0600       130
    10.0800       124
    10.1000        86
    10.1200       114
    10.1400       132
    10.1600       124
    10.1800       118
    10.2000       112
    10.2200       108
    10.2400        98
    10.2600        98
    10.2800       142
    10.3000       104
    10.3200       104
    10.3400       132
    10.3600       104
    10.3800       138
    10.4000       122
    10.4200       110
    10.4400       110
    10.4600       118
    10.4800       120
    10.5000       116
    10.5200       104
    10.5400       120
    10.5600       106
    10.5800       132
    10.6000        96
    10.6200       128
    10.6400       112
    10.6600       124
    10.6800       110
    10.7000       104
    10.7200       110
    10.7400       106
    10.7600       124
    10.7800        96
    10.8000       110
    10.8200       110
    10.8400       102
    10.8600       108
    10.8800       128
    10.9000       110
    10.9200       124
    10.9400       120
    10.9600       124
    10.9800        98
    11.0000       108
    11.0200       106
    11.0400       104
    11.0600       104
    11.0800        96
    11.1000       100
    11.1200       106
    11.1400        96
    11.1600        98
    11.1800       114
    11.2000        96
    11.2200       114
    11.2400       106
    11.2600       106
    11.2800       122
    11.3000        92
    11.3200        98
    11.3400       102
    11.3600       112
    11.3800       104
    11.4000        76
    11.4200        92
    11.4400        94
    11.4600        74
    11.4800        88
    11.5000       104
    11.5200       104
    11.5400       114
    11.5600       102
    11.5800        74
    11.6000        96
    11.6200        98
    11.6400        84
    11.6600        88
    11.6800       100
    11.7000       104
    11.7200        92
    11.7400        90
    11.7600        90
    11.7800       106
    11.8000       110
    11.8200       106
    11.8400        94
    11.8600        72
    11.8800        90
    11.9000        94
    11.9200       106
    11.9400       110
    11.9600       114
    11.9800       108
    12.0000       106
    12.0200        92
    12.0400       104
    12.0600        88
    12.0800        96
    12.1000       112
    12.1200        88
    12.1400        82
    12.1600        90
    12.1800        86
    12.2000       100
    12.2200        96
    12.2400        96
    12.2600       104
    12.2800       112
    12.3000       104
    12.3200        90
    12.3400        86
    12.3600       104
    12.3800        94
    12.4000       100
    12.4200        98
    12.4400        74
    12.4600       116
    12.4800        86
    12.5000        98
    12.5200        96
    12.5400        78
    12.5600        96
    12.5800        94
    12.6000        90
    12.6200        92
    12.6400        80
    12.6600        94
    12.6800        78
    12.7000        58
    12.7200        86
    12.7400        78
    12.7600        76
    12.7800        94
    12.8000        98
    12.8200        84
    12.8400        90
    12.8600       122
    12.8800        86
    12.9000        90
    12.9200        78
    12.9400        78
    12.9600        76
    12.9800        82
    13.0000        84
    13.0200        78
    13.0400        88
    13.0600        86
    13.0800        94
    13.1000        96
    13.1200        82
    13.1400        90
    13.1600        78
    13.1800        98
    13.2000        88
    13.2200        84
    13.2400        70
    13.2600        66
    13.2800        86
    13.3000        80
    13.3200        82
    13.3400        76
    13.3600        76
    13.3800        66
    13.4000        94
    13.4200        88
    13.4400        88
    13.4600        94
    13.4800        90
    13.5000        70
    13.5200        82
    13.5400       100
    13.5600        76
    13.5800        84
    13.6000        76
    13.6200        76
    13.6400        80
    13.6600        94
    13.6800        78
    13.7000        96
    13.7200        72
    13.7400        70
    13.7600        74
    13.7800        58
    13.8000        82
    13.8200        90
    13.8400        82
    13.8600        82
    13.8800        74
    13.9000        86
    13.9200        82
    13.9400        74
    13.9600        86
    13.9800        84
    14.0000        74
    14.0200        90
    14.0400        80
    14.0600        74
    14.0800        86
    14.1000        86
    14.1200       100
    14.1400        76
    14.1600        72
    14.1800        82
    14.2000        92
    14.2200        70
    14.2400        88
    14.2600        64
    14.2800        68
    14.3000        78
    14.3200       110
    14.3400        80
    14.3600        88
    14.3800        88
    14.4000        76
    14.4200       100
    14.4400        82
    14.4600        74
    14.4800        74
    14.5000        84
    14.5200        78
    14.5400        96
    14.5600        74
    14.5800        90
    14.6000        84
    14.6200        98
    14.6400        92
    14.6600        88
    14.6800        82
    14.7000       100
    14.7200        76
    14.7400        72
    14.7600        72
    14.7800        96
    14.8000        70
    14.8200        86
    14.8400        92
    14.8600        68
    14.8800        84
    14.9000        96
    14.9200        76
    14.9400        80
    14.9600        82
    14.9800        88
    15.0000        96
    15.0200        70
    15.0400        76
    15.0600        82
    15.0800        90
    15.1000        70
    15.1200        96
    15.1400        90
    15.1600        74
    15.1800       102
    15.2000        90
    15.2200        92
    15.2400        74
    15.2600        74
    15.2800        84
    15.3000        86
    15.3200        86
    15.3400        76
    15.3600        84
    15.3800        90
    15.4000        76
    15.4200        86
    15.4400        68
    15.4600        68
    15.4800        78
    15.5000        88
    15.5200        74
    15.5400        82
    15.5600        76
    15.5800        76
    15.6000        80
    15.6200        82
    15.6400        98
    15.6600        74
    15.6800        90
    15.7000        86
    15.7200        90
    15.7400        56
    15.7600        86
    15.7800        92
    15.8000        78
    15.8200        88
    15.8400        84
    15.8600        74
    15.8800        80
    15.9000        78
    15.9200        86
    15.9400        84
    15.9600        90
    15.9800        70
    16.0000        92
    16.0200        70
    16.0400       100
    16.0600        92
    16.0800       100
    16.1000       112
    16.1200       104
    16.1400        74
    16.1600        90
    16.1800        78
    16.2000        74
    16.2200        72
    16.2400        86
    16.2600        96
    16.2800        82
    16.3000        70
    16.3200        86
    16.3400        72
    16.3600        76
    16.3800        70
    16.4000        74
    16.4200        86
    16.4400        80
    16.4600        96
    16.4800        96
    16.5000        72
    16.5200        86
    16.5400        82
    16.5600        88
    16.5800        94
    16.6000       106
    16.6200        70
    16.6400        78
    16.6600        82
    16.6800        74
    16.7000        84
    16.7200        78
    16.7400        82
    16.7600        90
    16.7800        78
    16.8000        84
    16.8200        90
    16.8400        90
    16.8600        90
    16.8800        98
    16.9000        76
    16.9200        82
    16.9400        88
    16.9600        84
    16.9800        84
    17.0000       104
    17.0200       100
    17.0400        92
    17.0600       104
    17.0800       102
    17.1000        80
    17.1200        96
    17.1400        86
    17.1600        84
    17.1800        80
    17.2000        96
    17.2200        80
    17.2400       114
    17.2600        96
    17.2800       126
    17.3000        84
    17.3200        78
    17.3400        82
    17.3600        86
    17.3800        78
    17.4000       112
    17.4200        86
    17.4400       106
    17.4600        94
    17.4800        92
    17.5000        92
    17.5200       100
    17.5400        82
    17.5600        98
    17.5800       102
    17.6000        92
    17.6200       102
    17.6400        88
    17.6600       104
    17.6800        86
    17.7000        90
    17.7200       110
    17.7400       108
    17.7600       114
    17.7800        94
    17.8000       108
    17.8200       116
    17.8400        88
    17.8600        92
    17.8800        94
    17.9000        92
    17.9200        98
    17.9400        96
    17.9600        96
    17.9800        96
    18.0000       102
    18.0200       114
    18.0400        88
    18.0600       116
    18.0800       130
    18.1000       106
    18.1200        94
    18.1400       102
    18.1600        94
    18.1800        92
    18.2000       118
    18.2200       122
    18.2400       114
    18.2600        88
    18.2800       104
    18.3000        90
    18.3200       114
    18.3400       104
    18.3600       114
    18.3800       108
    18.4000       100
    18.4200       104
    18.4400       110
    18.4600       104
    18.4800        98
    18.5000       108
    18.5200       108
    18.5400       102
    18.5600       106
    18.5800        96
    18.6000       120
    18.6200       106
    18.6400       126
    18.6600       114
    18.6800       114
    18.7000       116
    18.7200       132
    18.7400       104
    18.7600       114
    18.7800       142
    18.8000       120
    18.8200       106
    18.8400       136
    18.8600       114
    18.8800       116
    18.9000       120
    18.9200       118
    18.9400       144
    18.9600       110
    18.9800       134
    19.0000       108
    19.0200       110
    19.0400       126
    19.0600       146
    19.0800       130
    19.1000       124
    19.1200       128
    19.1400       128
    19.1600       144
    19.1800       132
    19.2000       146
    19.2200       142
    19.2400       134
    19.2600       138
    19.2800       144
    19.3000       146
    19.3200       154
    19.3400       158
    19.3600       116
    19.3800       138
    19.4000       166
    19.4200       158
    19.4400       148
    19.4600       152
    19.4800       158
    19.5000       132
    19.5200       154
    19.5400       156
    19.5600       156
    19.5800       168
    19.6000       164
    19.6200       130
    19.6400       146
    19.6600       174
    19.6800       162
    19.7000       134
    19.7200       146
    19.7400       156
    19.7600       130
    19.7800       168
    19.8000       184
    19.8200       166
    19.8400       150
    19.8600       146
    19.8800       152
    19.9000       168
    19.9200       138
    19.9400       158
    19.9600       136
    19.9800       132
    20.0000       150
    20.0200       158
    20.0400       124
    20.0600       130
    20.0800       158
    20.1000       156
    20.1200       164
    20.1400       186
    20.1600       172
    20.1800       136
    20.2000       144
    20.2200       174
    20.2400       164
    20.2600       156
    20.2800       154
    20.3000       156
    20.3200       152
    20.3400       150
    20.3600       148
    20.3800       166
