/////////////////////////////////////////////////////////////////////////////////
/// Profile Data Ascii Dump (XRD)                                             ///
/////////////////////////////////////////////////////////////////////////////////

  Group     : Swayze
  Data      : GDS68
  File Name : GDS68.RAW

# Profile Datafile
          comment             = C lamp black 
          date & time         = 08-03-14 07:57:50 

# Measurement Condition
    X-ray tube
          target              = Cu 
          voltage             = 40.0 (kV)
          current             = 30.0 (mA)
    Slits
          divergence slit     = 2.00000 (deg) 
          scatter slit        = 2.00000 (deg) 
          receiving slit      = 0.15000 (mm)  
    Scanning
          drive axis          = Theta-2Theta 
          scan range          =    4.000 -   65.000 
          scan mode           = Continuous Scan 
          scan speed          =   2.0000 (deg/min) 
          sampling pitch      =   0.0200 (deg) 
          preset time         =   0.60 (sec) 

# Data      [ Total No. = 3051 ]
  <2Theta>   <   I   >
     4.0000       506
     4.0200       510
     4.0400       524
     4.0600       482
     4.0800       516
     4.1000       508
     4.1200       498
     4.1400       524
     4.1600       504
     4.1800       500
     4.2000       526
     4.2200       494
     4.2400       506
     4.2600       480
     4.2800       530
     4.3000       482
     4.3200       510
     4.3400       448
     4.3600       482
     4.3800       508
     4.4000       504
     4.4200       514
     4.4400       504
     4.4600       488
     4.4800       490
     4.5000       446
     4.5200       466
     4.5400       482
     4.5600       464
     4.5800       504
     4.6000       450
     4.6200       492
     4.6400       458
     4.6600       434
     4.6800       476
     4.7000       480
     4.7200       452
     4.7400       488
     4.7600       484
     4.7800       468
     4.8000       446
     4.8200       470
     4.8400       446
     4.8600       472
     4.8800       462
     4.9000       492
     4.9200       456
     4.9400       476
     4.9600       490
     4.9800       484
     5.0000       436
     5.0200       448
     5.0400       476
     5.0600       440
     5.0800       418
     5.1000       444
     5.1200       470
     5.1400       428
     5.1600       428
     5.1800       488
     5.2000       430
     5.2200       416
     5.2400       418
     5.2600       468
     5.2800       444
     5.3000       456
     5.3200       470
     5.3400       408
     5.3600       430
     5.3800       432
     5.4000       458
     5.4200       468
     5.4400       430
     5.4600       412
     5.4800       430
     5.5000       410
     5.5200       430
     5.5400       450
     5.5600       426
     5.5800       434
     5.6000       422
     5.6200       424
     5.6400       430
     5.6600       430
     5.6800       424
     5.7000       458
     5.7200       446
     5.7400       432
     5.7600       406
     5.7800       394
     5.8000       416
     5.8200       420
     5.8400       452
     5.8600       428
     5.8800       418
     5.9000       410
     5.9200       408
     5.9400       370
     5.9600       444
     5.9800       376
     6.0000       418
     6.0200       406
     6.0400       426
     6.0600       394
     6.0800       436
     6.1000       434
     6.1200       404
     6.1400       422
     6.1600       398
     6.1800       388
     6.2000       374
     6.2200       412
     6.2400       418
     6.2600       394
     6.2800       416
     6.3000       372
     6.3200       372
     6.3400       414
     6.3600       388
     6.3800       368
     6.4000       374
     6.4200       396
     6.4400       392
     6.4600       374
     6.4800       416
     6.5000       412
     6.5200       408
     6.5400       374
     6.5600       392
     6.5800       394
     6.6000       382
     6.6200       394
     6.6400       424
     6.6600       350
     6.6800       380
     6.7000       376
     6.7200       398
     6.7400       374
     6.7600       380
     6.7800       366
     6.8000       368
     6.8200       376
     6.8400       368
     6.8600       330
     6.8800       362
     6.9000       352
     6.9200       374
     6.9400       350
     6.9600       352
     6.9800       336
     7.0000       336
     7.0200       346
     7.0400       358
     7.0600       350
     7.0800       340
     7.1000       354
     7.1200       376
     7.1400       378
     7.1600       354
     7.1800       344
     7.2000       332
     7.2200       352
     7.2400       342
     7.2600       344
     7.2800       316
     7.3000       342
     7.3200       308
     7.3400       352
     7.3600       358
     7.3800       350
     7.4000       334
     7.4200       384
     7.4400       358
     7.4600       362
     7.4800       336
     7.5000       348
     7.5200       370
     7.5400       336
     7.5600       330
     7.5800       314
     7.6000       374
     7.6200       310
     7.6400       314
     7.6600       312
     7.6800       326
     7.7000       330
     7.7200       342
     7.7400       312
     7.7600       322
     7.7800       330
     7.8000       334
     7.8200       308
     7.8400       316
     7.8600       350
     7.8800       326
     7.9000       320
     7.9200       316
     7.9400       352
     7.9600       328
     7.9800       342
     8.0000       316
     8.0200       318
     8.0400       320
     8.0600       340
     8.0800       338
     8.1000       330
     8.1200       336
     8.1400       304
     8.1600       322
     8.1800       348
     8.2000       312
     8.2200       328
     8.2400       322
     8.2600       344
     8.2800       308
     8.3000       324
     8.3200       312
     8.3400       294
     8.3600       320
     8.3800       334
     8.4000       328
     8.4200       334
     8.4400       342
     8.4600       318
     8.4800       330
     8.5000       352
     8.5200       306
     8.5400       338
     8.5600       354
     8.5800       340
     8.6000       322
     8.6200       298
     8.6400       318
     8.6600       314
     8.6800       348
     8.7000       306
     8.7200       316
     8.7400       296
     8.7600       336
     8.7800       354
     8.8000       294
     8.8200       356
     8.8400       320
     8.8600       350
     8.8800       292
     8.9000       314
     8.9200       296
     8.9400       326
     8.9600       328
     8.9800       324
     9.0000       318
     9.0200       322
     9.0400       320
     9.0600       342
     9.0800       324
     9.1000       334
     9.1200       308
     9.1400       306
     9.1600       330
     9.1800       330
     9.2000       302
     9.2200       298
     9.2400       338
     9.2600       314
     9.2800       324
     9.3000       326
     9.3200       318
     9.3400       304
     9.3600       310
     9.3800       294
     9.4000       316
     9.4200       312
     9.4400       316
     9.4600       278
     9.4800       314
     9.5000       312
     9.5200       316
     9.5400       290
     9.5600       298
     9.5800       302
     9.6000       304
     9.6200       284
     9.6400       308
     9.6600       296
     9.6800       318
     9.7000       314
     9.7200       294
     9.7400       314
     9.7600       296
     9.7800       296
     9.8000       312
     9.8200       278
     9.8400       340
     9.8600       286
     9.8800       296
     9.9000       290
     9.9200       290
     9.9400       286
     9.9600       288
     9.9800       348
    10.0000       270
    10.0200       290
    10.0400       292
    10.0600       326
    10.0800       310
    10.1000       280
    10.1200       292
    10.1400       292
    10.1600       288
    10.1800       302
    10.2000       302
    10.2200       306
    10.2400       308
    10.2600       294
    10.2800       320
    10.3000       286
    10.3200       264
    10.3400       278
    10.3600       292
    10.3800       306
    10.4000       306
    10.4200       278
    10.4400       260
    10.4600       284
    10.4800       308
    10.5000       274
    10.5200       308
    10.5400       278
    10.5600       280
    10.5800       324
    10.6000       308
    10.6200       292
    10.6400       280
    10.6600       306
    10.6800       278
    10.7000       290
    10.7200       290
    10.7400       306
    10.7600       318
    10.7800       272
    10.8000       290
    10.8200       288
    10.8400       284
    10.8600       270
    10.8800       274
    10.9000       296
    10.9200       280
    10.9400       288
    10.9600       314
    10.9800       272
    11.0000       264
    11.0200       276
    11.0400       290
    11.0600       310
    11.0800       266
    11.1000       276
    11.1200       306
    11.1400       282
    11.1600       292
    11.1800       270
    11.2000       260
    11.2200       278
    11.2400       320
    11.2600       288
    11.2800       284
    11.3000       282
    11.3200       272
    11.3400       286
    11.3600       272
    11.3800       308
    11.4000       280
    11.4200       238
    11.4400       284
    11.4600       266
    11.4800       262
    11.5000       280
    11.5200       250
    11.5400       280
    11.5600       226
    11.5800       280
    11.6000       260
    11.6200       276
    11.6400       298
    11.6600       278
    11.6800       264
    11.7000       284
    11.7200       256
    11.7400       260
    11.7600       270
    11.7800       278
    11.8000       266
    11.8200       268
    11.8400       274
    11.8600       256
    11.8800       292
    11.9000       270
    11.9200       278
    11.9400       258
    11.9600       280
    11.9800       280
    12.0000       270
    12.0200       260
    12.0400       280
    12.0600       282
    12.0800       260
    12.1000       246
    12.1200       310
    12.1400       298
    12.1600       274
    12.1800       278
    12.2000       256
    12.2200       272
    12.2400       282
    12.2600       280
    12.2800       266
    12.3000       238
    12.3200       244
    12.3400       266
    12.3600       268
    12.3800       280
    12.4000       250
    12.4200       280
    12.4400       308
    12.4600       266
    12.4800       290
    12.5000       304
    12.5200       268
    12.5400       268
    12.5600       256
    12.5800       252
    12.6000       256
    12.6200       288
    12.6400       254
    12.6600       282
    12.6800       284
    12.7000       250
    12.7200       238
    12.7400       250
    12.7600       248
    12.7800       258
    12.8000       272
    12.8200       240
    12.8400       248
    12.8600       258
    12.8800       238
    12.9000       242
    12.9200       288
    12.9400       260
    12.9600       232
    12.9800       268
    13.0000       256
    13.0200       236
    13.0400       260
    13.0600       270
    13.0800       264
    13.1000       280
    13.1200       276
    13.1400       282
    13.1600       246
    13.1800       258
    13.2000       236
    13.2200       256
    13.2400       260
    13.2600       222
    13.2800       270
    13.3000       256
    13.3200       266
    13.3400       250
    13.3600       264
    13.3800       248
    13.4000       266
    13.4200       256
    13.4400       246
    13.4600       284
    13.4800       270
    13.5000       248
    13.5200       244
    13.5400       268
    13.5600       270
    13.5800       238
    13.6000       242
    13.6200       292
    13.6400       262
    13.6600       262
    13.6800       268
    13.7000       254
    13.7200       246
    13.7400       270
    13.7600       260
    13.7800       270
    13.8000       260
    13.8200       236
    13.8400       284
    13.8600       256
    13.8800       262
    13.9000       254
    13.9200       248
    13.9400       284
    13.9600       236
    13.9800       282
    14.0000       246
    14.0200       292
    14.0400       280
    14.0600       246
    14.0800       244
    14.1000       274
    14.1200       252
    14.1400       272
    14.1600       248
    14.1800       284
    14.2000       282
    14.2200       284
    14.2400       304
    14.2600       246
    14.2800       264
    14.3000       270
    14.3200       256
    14.3400       282
    14.3600       278
    14.3800       272
    14.4000       236
    14.4200       280
    14.4400       288
    14.4600       258
    14.4800       262
    14.5000       278
    14.5200       244
    14.5400       262
    14.5600       256
    14.5800       250
    14.6000       322
    14.6200       254
    14.6400       264
    14.6600       254
    14.6800       288
    14.7000       242
    14.7200       264
    14.7400       258
    14.7600       230
    14.7800       300
    14.8000       292
    14.8200       264
    14.8400       256
    14.8600       272
    14.8800       282
    14.9000       280
    14.9200       242
    14.9400       274
    14.9600       242
    14.9800       234
    15.0000       258
    15.0200       260
    15.0400       256
    15.0600       274
    15.0800       256
    15.1000       268
    15.1200       228
    15.1400       304
    15.1600       260
    15.1800       292
    15.2000       272
    15.2200       300
    15.2400       254
    15.2600       298
    15.2800       278
    15.3000       266
    15.3200       280
    15.3400       268
    15.3600       284
    15.3800       264
    15.4000       254
    15.4200       268
    15.4400       292
    15.4600       290
    15.4800       264
    15.5000       272
    15.5200       286
    15.5400       256
    15.5600       266
    15.5800       268
    15.6000       266
    15.6200       262
    15.6400       280
    15.6600       270
    15.6800       290
    15.7000       272
    15.7200       266
    15.7400       274
    15.7600       270
    15.7800       274
    15.8000       270
    15.8200       296
    15.8400       294
    15.8600       260
    15.8800       288
    15.9000       290
    15.9200       278
    15.9400       304
    15.9600       258
    15.9800       288
    16.0000       256
    16.0200       252
    16.0400       290
    16.0600       294
    16.0800       254
    16.1000       298
    16.1200       292
    16.1400       276
    16.1600       286
    16.1800       296
    16.2000       270
    16.2200       236
    16.2400       280
    16.2600       280
    16.2800       262
    16.3000       280
    16.3200       294
    16.3400       286
    16.3600       304
    16.3800       270
    16.4000       284
    16.4200       316
    16.4400       254
    16.4600       288
    16.4800       292
    16.5000       276
    16.5200       288
    16.5400       294
    16.5600       322
    16.5800       286
    16.6000       272
    16.6200       286
    16.6400       286
    16.6600       278
    16.6800       282
    16.7000       286
    16.7200       270
    16.7400       310
    16.7600       274
    16.7800       332
    16.8000       256
    16.8200       292
    16.8400       256
    16.8600       258
    16.8800       294
    16.9000       300
    16.9200       310
    16.9400       288
    16.9600       300
    16.9800       296
    17.0000       306
    17.0200       274
    17.0400       328
    17.0600       310
    17.0800       318
    17.1000       326
    17.1200       300
    17.1400       284
    17.1600       264
    17.1800       294
    17.2000       310
    17.2200       324
    17.2400       290
    17.2600       288
    17.2800       308
    17.3000       312
    17.3200       336
    17.3400       282
    17.3600       296
    17.3800       340
    17.4000       304
    17.4200       268
    17.4400       322
    17.4600       296
    17.4800       288
    17.5000       350
    17.5200       324
    17.5400       292
    17.5600       292
    17.5800       336
    17.6000       318
    17.6200       292
    17.6400       314
    17.6600       336
    17.6800       294
    17.7000       324
    17.7200       288
    17.7400       336
    17.7600       328
    17.7800       328
    17.8000       296
    17.8200       348
    17.8400       344
    17.8600       326
    17.8800       336
    17.9000       338
    17.9200       320
    17.9400       316
    17.9600       314
    17.9800       360
    18.0000       324
    18.0200       332
    18.0400       358
    18.0600       336
    18.0800       310
    18.1000       310
    18.1200       310
    18.1400       340
    18.1600       322
    18.1800       328
    18.2000       306
    18.2200       312
    18.2400       316
    18.2600       352
    18.2800       354
    18.3000       336
    18.3200       344
    18.3400       346
    18.3600       356
    18.3800       368
    18.4000       340
    18.4200       308
    18.4400       318
    18.4600       338
    18.4800       332
    18.5000       340
    18.5200       350
    18.5400       354
    18.5600       376
    18.5800       322
    18.6000       356
    18.6200       350
    18.6400       376
    18.6600       354
    18.6800       350
    18.7000       334
    18.7200       350
    18.7400       362
    18.7600       330
    18.7800       418
    18.8000       342
    18.8200       346
    18.8400       368
    18.8600       364
    18.8800       380
    18.9000       382
    18.9200       378
    18.9400       384
    18.9600       348
    18.9800       378
    19.0000       352
    19.0200       358
    19.0400       374
    19.0600       364
    19.0800       344
    19.1000       388
    19.1200       358
    19.1400       356
    19.1600       406
    19.1800       388
    19.2000       354
    19.2200       388
    19.2400       364
    19.2600       358
    19.2800       370
    19.3000       362
    19.3200       398
    19.3400       372
    19.3600       416
    19.3800       418
    19.4000       368
    19.4200       358
    19.4400       402
    19.4600       378
    19.4800       410
    19.5000       356
    19.5200       402
    19.5400       388
    19.5600       422
    19.5800       402
    19.6000       420
    19.6200       414
    19.6400       404
    19.6600       404
    19.6800       386
    19.7000       392
    19.7200       402
    19.7400       396
    19.7600       434
    19.7800       452
    19.8000       412
    19.8200       424
    19.8400       380
    19.8600       412
    19.8800       406
    19.9000       416
    19.9200       430
    19.9400       402
    19.9600       392
    19.9800       440
    20.0000       450
    20.0200       442
    20.0400       426
    20.0600       452
    20.0800       454
    20.1000       414
    20.1200       432
    20.1400       438
    20.1600       448
    20.1800       438
    20.2000       458
    20.2200       484
    20.2400       458
    20.2600       472
    20.2800       418
    20.3000       458
    20.3200       442
    20.3400       452
    20.3600       426
    20.3800       434
