/////////////////////////////////////////////////////////////////////////////////
/// Profile Data Ascii Dump (XRD)                                             ///
/////////////////////////////////////////////////////////////////////////////////

  Group     : Swayze
  Data      : GDS739B
  File Name : GDS739B.RAW

# Profile Datafile
          comment             =   
          date & time         = 08-03-11 06:05:48 

# Measurement Condition
    X-ray tube
          target              = Cu 
          voltage             = 40.0 (kV)
          current             = 30.0 (mA)
    Slits
          divergence slit     = 2.00000 (deg) 
          scatter slit        = 2.00000 (deg) 
          receiving slit      = 0.15000 (mm)  
    Scanning
          drive axis          = Theta-2Theta 
          scan range          =    4.000 -   65.000 
          scan mode           = Continuous Scan 
          scan speed          =   2.0000 (deg/min) 
          sampling pitch      =   0.0200 (deg) 
          preset time         =   0.60 (sec) 

# Data      [ Total No. = 3051 ]
  <2Theta>   <   I   >
     4.0000       186
     4.0200       204
     4.0400       194
     4.0600       202
     4.0800       186
     4.1000       206
     4.1200       214
     4.1400       222
     4.1600       182
     4.1800       208
     4.2000       214
     4.2200       186
     4.2400       188
     4.2600       188
     4.2800       162
     4.3000       186
     4.3200       162
     4.3400       160
     4.3600       176
     4.3800       206
     4.4000       158
     4.4200       190
     4.4400       202
     4.4600       170
     4.4800       200
     4.5000       164
     4.5200       186
     4.5400       184
     4.5600       170
     4.5800       206
     4.6000       178
     4.6200       178
     4.6400       146
     4.6600       188
     4.6800       176
     4.7000       164
     4.7200       180
     4.7400       162
     4.7600       134
     4.7800       186
     4.8000       156
     4.8200       170
     4.8400       166
     4.8600       144
     4.8800       188
     4.9000       176
     4.9200       164
     4.9400       172
     4.9600       184
     4.9800       158
     5.0000       168
     5.0200       172
     5.0400       162
     5.0600       168
     5.0800       144
     5.1000       182
     5.1200       176
     5.1400       162
     5.1600       146
     5.1800       152
     5.2000       158
     5.2200       154
     5.2400       180
     5.2600       172
     5.2800       164
     5.3000       158
     5.3200       150
     5.3400       172
     5.3600       180
     5.3800       158
     5.4000       166
     5.4200       168
     5.4400       156
     5.4600       160
     5.4800       152
     5.5000       160
     5.5200       200
     5.5400       158
     5.5600       160
     5.5800       180
     5.6000       172
     5.6200       152
     5.6400       146
     5.6600       180
     5.6800       168
     5.7000       192
     5.7200       162
     5.7400       150
     5.7600       172
     5.7800       160
     5.8000       152
     5.8200       194
     5.8400       166
     5.8600       170
     5.8800       144
     5.9000       154
     5.9200       152
     5.9400       166
     5.9600       160
     5.9800       176
     6.0000       188
     6.0200       142
     6.0400       168
     6.0600       162
     6.0800       158
     6.1000       156
     6.1200       154
     6.1400       160
     6.1600       172
     6.1800       142
     6.2000       180
     6.2200       160
     6.2400       160
     6.2600       158
     6.2800       150
     6.3000       168
     6.3200       144
     6.3400       176
     6.3600       124
     6.3800       132
     6.4000       148
     6.4200       158
     6.4400       154
     6.4600       138
     6.4800       150
     6.5000       150
     6.5200       150
     6.5400       112
     6.5600       136
     6.5800       136
     6.6000       148
     6.6200       156
     6.6400       144
     6.6600       156
     6.6800       124
     6.7000       162
     6.7200       144
     6.7400       172
     6.7600       124
     6.7800       158
     6.8000       158
     6.8200       148
     6.8400       138
     6.8600       126
     6.8800       132
     6.9000       130
     6.9200       138
     6.9400       136
     6.9600       142
     6.9800       144
     7.0000       134
     7.0200       122
     7.0400       128
     7.0600       126
     7.0800       114
     7.1000       120
     7.1200       130
     7.1400       130
     7.1600       128
     7.1800       126
     7.2000       128
     7.2200       124
     7.2400       118
     7.2600       118
     7.2800       108
     7.3000       126
     7.3200       112
     7.3400       148
     7.3600       126
     7.3800       114
     7.4000       120
     7.4200       122
     7.4400       132
     7.4600       122
     7.4800       128
     7.5000       116
     7.5200       116
     7.5400       104
     7.5600       112
     7.5800       126
     7.6000       134
     7.6200       132
     7.6400       120
     7.6600       118
     7.6800       104
     7.7000       122
     7.7200       116
     7.7400       122
     7.7600       138
     7.7800       134
     7.8000        96
     7.8200        96
     7.8400       120
     7.8600       122
     7.8800        98
     7.9000       112
     7.9200       120
     7.9400       118
     7.9600       106
     7.9800       102
     8.0000       128
     8.0200       110
     8.0400       118
     8.0600       138
     8.0800       126
     8.1000       136
     8.1200       110
     8.1400       124
     8.1600       110
     8.1800       124
     8.2000        78
     8.2200       104
     8.2400       116
     8.2600       124
     8.2800       126
     8.3000       108
     8.3200       128
     8.3400       104
     8.3600       116
     8.3800       104
     8.4000       106
     8.4200       116
     8.4400       132
     8.4600        98
     8.4800       108
     8.5000       122
     8.5200       110
     8.5400       128
     8.5600       116
     8.5800       134
     8.6000       132
     8.6200       108
     8.6400       112
     8.6600       112
     8.6800       136
     8.7000       106
     8.7200       120
     8.7400       144
     8.7600       102
     8.7800       128
     8.8000       126
     8.8200       108
     8.8400       124
     8.8600       124
     8.8800       128
     8.9000       128
     8.9200       128
     8.9400       104
     8.9600       124
     8.9800       132
     9.0000       102
     9.0200       138
     9.0400       108
     9.0600       130
     9.0800       120
     9.1000       118
     9.1200       122
     9.1400       114
     9.1600       104
     9.1800       122
     9.2000       110
     9.2200       110
     9.2400       108
     9.2600       114
     9.2800       124
     9.3000       116
     9.3200       112
     9.3400       144
     9.3600       126
     9.3800       132
     9.4000       122
     9.4200       148
     9.4400       112
     9.4600       124
     9.4800       112
     9.5000       126
     9.5200       138
     9.5400       140
     9.5600       100
     9.5800       118
     9.6000       112
     9.6200       118
     9.6400       120
     9.6600       112
     9.6800       112
     9.7000        96
     9.7200       112
     9.7400       122
     9.7600       136
     9.7800       116
     9.8000       126
     9.8200       110
     9.8400       132
     9.8600       118
     9.8800       118
     9.9000       104
     9.9200       128
     9.9400       108
     9.9600       116
     9.9800       120
    10.0000       106
    10.0200       108
    10.0400       106
    10.0600       118
    10.0800       122
    10.1000       112
    10.1200       128
    10.1400       114
    10.1600        86
    10.1800        92
    10.2000       106
    10.2200       110
    10.2400       114
    10.2600        98
    10.2800        98
    10.3000       112
    10.3200       106
    10.3400       102
    10.3600       114
    10.3800       104
    10.4000        98
    10.4200       112
    10.4400        82
    10.4600       112
    10.4800       100
    10.5000       102
    10.5200       104
    10.5400       104
    10.5600       108
    10.5800        96
    10.6000        98
    10.6200       106
    10.6400       100
    10.6600       112
    10.6800       100
    10.7000       122
    10.7200        92
    10.7400       104
    10.7600       114
    10.7800       112
    10.8000       114
    10.8200       126
    10.8400       110
    10.8600        86
    10.8800       108
    10.9000        96
    10.9200        96
    10.9400       104
    10.9600        92
    10.9800        90
    11.0000       108
    11.0200       102
    11.0400        94
    11.0600       100
    11.0800       106
    11.1000        92
    11.1200        86
    11.1400        84
    11.1600        92
    11.1800       104
    11.2000        84
    11.2200        82
    11.2400        92
    11.2600        94
    11.2800        80
    11.3000       110
    11.3200        88
    11.3400        80
    11.3600       126
    11.3800        92
    11.4000        76
    11.4200        88
    11.4400        82
    11.4600       102
    11.4800        78
    11.5000        96
    11.5200        84
    11.5400        86
    11.5600        94
    11.5800       104
    11.6000       106
    11.6200        88
    11.6400        84
    11.6600        70
    11.6800        90
    11.7000       100
    11.7200        86
    11.7400        96
    11.7600        90
    11.7800        96
    11.8000        90
    11.8200        86
    11.8400        82
    11.8600        80
    11.8800        78
    11.9000        84
    11.9200        78
    11.9400        92
    11.9600        92
    11.9800        86
    12.0000        82
    12.0200       102
    12.0400        76
    12.0600        74
    12.0800        90
    12.1000        72
    12.1200        86
    12.1400        82
    12.1600       106
    12.1800        88
    12.2000        86
    12.2200        94
    12.2400        86
    12.2600        80
    12.2800        92
    12.3000       100
    12.3200        68
    12.3400        88
    12.3600        84
    12.3800        80
    12.4000        76
    12.4200        78
    12.4400        84
    12.4600        86
    12.4800        76
    12.5000       108
    12.5200        80
    12.5400        82
    12.5600        76
    12.5800        76
    12.6000        84
    12.6200        90
    12.6400        84
    12.6600        94
    12.6800        64
    12.7000       100
    12.7200        86
    12.7400        72
    12.7600        78
    12.7800        82
    12.8000        88
    12.8200        94
    12.8400        80
    12.8600        86
    12.8800       108
    12.9000        64
    12.9200        86
    12.9400        84
    12.9600        80
    12.9800        74
    13.0000        54
    13.0200        78
    13.0400        84
    13.0600        88
    13.0800        62
    13.1000        66
    13.1200        78
    13.1400        70
    13.1600        86
    13.1800        82
    13.2000        62
    13.2200        82
    13.2400        84
    13.2600        64
    13.2800        68
    13.3000        96
    13.3200        92
    13.3400        72
    13.3600        66
    13.3800        90
    13.4000        70
    13.4200        66
    13.4400        76
    13.4600        74
    13.4800        78
    13.5000        74
    13.5200        74
    13.5400        82
    13.5600        66
    13.5800        80
    13.6000        86
    13.6200        92
    13.6400        76
    13.6600        88
    13.6800        74
    13.7000        74
    13.7200        82
    13.7400        54
    13.7600        66
    13.7800        64
    13.8000        94
    13.8200        64
    13.8400        68
    13.8600        74
    13.8800        60
    13.9000        50
    13.9200        60
    13.9400        62
    13.9600        58
    13.9800        64
    14.0000        74
    14.0200        50
    14.0400        74
    14.0600        68
    14.0800        62
    14.1000        82
    14.1200        72
    14.1400        64
    14.1600        82
    14.1800        76
    14.2000        64
    14.2200        74
    14.2400        64
    14.2600        78
    14.2800        66
    14.3000        78
    14.3200        60
    14.3400        70
    14.3600        74
    14.3800        58
    14.4000        68
    14.4200        60
    14.4400        68
    14.4600        78
    14.4800        64
    14.5000        84
    14.5200        64
    14.5400        78
    14.5600        70
    14.5800        74
    14.6000        68
    14.6200        74
    14.6400        74
    14.6600        60
    14.6800        70
    14.7000        70
    14.7200        64
    14.7400        80
    14.7600        74
    14.7800        72
    14.8000        70
    14.8200        72
    14.8400        58
    14.8600        74
    14.8800        58
    14.9000        48
    14.9200        72
    14.9400        76
    14.9600        82
    14.9800        68
    15.0000        68
    15.0200        72
    15.0400        84
    15.0600        72
    15.0800        60
    15.1000        68
    15.1200        68
    15.1400        70
    15.1600        78
    15.1800        78
    15.2000        74
    15.2200        68
    15.2400        68
    15.2600        74
    15.2800        76
    15.3000        70
    15.3200        92
    15.3400       104
    15.3600        84
    15.3800        86
    15.4000       112
    15.4200       108
    15.4400        98
    15.4600       122
    15.4800       150
    15.5000       156
    15.5200       146
    15.5400       170
    15.5600       174
    15.5800       202
    15.6000       222
    15.6200       268
    15.6400       224
    15.6600       240
    15.6800       208
    15.7000       194
    15.7200       158
    15.7400       130
    15.7600       116
    15.7800       108
    15.8000        86
    15.8200        70
    15.8400        68
    15.8600        78
    15.8800        60
    15.9000        74
    15.9200        58
    15.9400        62
    15.9600        72
    15.9800        66
    16.0000        78
    16.0200        80
    16.0400        62
    16.0600        62
    16.0800        68
    16.1000        80
    16.1200        66
    16.1400        92
    16.1600        68
    16.1800        80
    16.2000        70
    16.2200        90
    16.2400        82
    16.2600        94
    16.2800        84
    16.3000        66
    16.3200        62
    16.3400        82
    16.3600        52
    16.3800        64
    16.4000        80
    16.4200        62
    16.4400        56
    16.4600        76
    16.4800        74
    16.5000        58
    16.5200        58
    16.5400        66
    16.5600        56
    16.5800        70
    16.6000        70
    16.6200        66
    16.6400        76
    16.6600        70
    16.6800        62
    16.7000        90
    16.7200        70
    16.7400        74
    16.7600        68
    16.7800        74
    16.8000        74
    16.8200        74
    16.8400        78
    16.8600        64
    16.8800        66
    16.9000        80
    16.9200        64
    16.9400        88
    16.9600        82
    16.9800        68
    17.0000        74
    17.0200        64
    17.0400        76
    17.0600        72
    17.0800       100
    17.1000        82
    17.1200       106
    17.1400       108
    17.1600       110
    17.1800       110
    17.2000        94
    17.2200       122
    17.2400       102
    17.2600       104
    17.2800       136
    17.3000       128
    17.3200       146
    17.3400       164
    17.3600       174
    17.3800       216
    17.4000       246
    17.4200       254
    17.4400       302
    17.4600       336
    17.4800       366
    17.5000       368
    17.5200       436
    17.5400       484
    17.5600       522
    17.5800       542
    17.6000       586
    17.6200       646
    17.6400       670
    17.6600       762
    17.6800       822
    17.7000       788
    17.7200       858
    17.7400       908
    17.7600       992
    17.7800       988
    17.8000      1042
    17.8200      1086
    17.8400      1086
    17.8600      1064
    17.8800      1054
    17.9000      1016
    17.9200       968
    17.9400       886
    17.9600       760
    17.9800       786
    18.0000       628
    18.0200       542
    18.0400       462
    18.0600       404
    18.0800       316
    18.1000       244
    18.1200       224
    18.1400       188
    18.1600       172
    18.1800       156
    18.2000       148
    18.2200       108
    18.2400        96
    18.2600       108
    18.2800        96
    18.3000        82
    18.3200        94
    18.3400        78
    18.3600        70
    18.3800        80
    18.4000        70
    18.4200        64
    18.4400        64
    18.4600        84
    18.4800        82
    18.5000        66
    18.5200        74
    18.5400        78
    18.5600        54
    18.5800        52
    18.6000        62
    18.6200        66
    18.6400        66
    18.6600        58
    18.6800        62
    18.7000        64
    18.7200        68
    18.7400        62
    18.7600        54
    18.7800        54
    18.8000        76
    18.8200        58
    18.8400        48
    18.8600        52
    18.8800        56
    18.9000        56
    18.9200        46
    18.9400        58
    18.9600        38
    18.9800        60
    19.0000        62
    19.0200        52
    19.0400        64
    19.0600        46
    19.0800        56
    19.1000        42
    19.1200        48
    19.1400        48
    19.1600        58
    19.1800        56
    19.2000        46
    19.2200        46
    19.2400        48
    19.2600        62
    19.2800        56
    19.3000        44
    19.3200        58
    19.3400        56
    19.3600        38
    19.3800        62
    19.4000        50
    19.4200        58
    19.4400        68
    19.4600        54
    19.4800        50
    19.5000        72
    19.5200        60
    19.5400        54
    19.5600        48
    19.5800        68
    19.6000        58
    19.6200        42
    19.6400        46
    19.6600        56
    19.6800        46
    19.7000        48
    19.7200        44
    19.7400        48
    19.7600        42
    19.7800        56
    19.8000        48
    19.8200        42
    19.8400        42
    19.8600        52
    19.8800        60
    19.9000        44
    19.9200        50
    19.9400        44
    19.9600        46
    19.9800        62
    20.0000        48
    20.0200        54
    20.0400        44
    20.0600        50
    20.0800        44
    20.1000        50
    20.1200        54
    20.1400        40
    20.1600        42
    20.1800        50
    20.2000        44
    20.2200        56
    20.2400        56
    20.2600        46
    20.2800        70
    20.3000        58
    20.3200        50
    20.3400        46
    20.3600        40
    20.3800        42
