/////////////////////////////////////////////////////////////////////////////////
/// Profile Data Ascii Dump (XRD)                                             ///
/////////////////////////////////////////////////////////////////////////////////

  Group     : Swayze
  Data      : GDS821
  File Name : GDS821.RAW

# Profile Datafile
          comment             = Stilbite 
          date & time         = 08-04-01 06:47:56 

# Measurement Condition
    X-ray tube
          target              = Cu 
          voltage             = 40.0 (kV)
          current             = 30.0 (mA)
    Slits
          divergence slit     = 2.00000 (deg) 
          scatter slit        = 2.00000 (deg) 
          receiving slit      = 0.15000 (mm)  
    Scanning
          drive axis          = Theta-2Theta 
          scan range          =    4.000 -   65.000 
          scan mode           = Continuous Scan 
          scan speed          =   2.0000 (deg/min) 
          sampling pitch      =   0.0200 (deg) 
          preset time         =   0.60 (sec) 

# Data      [ Total No. = 3051 ]
  <2Theta>   <   I   >
     4.0000       184
     4.0200       224
     4.0400       180
     4.0600       178
     4.0800       194
     4.1000       160
     4.1200       168
     4.1400       176
     4.1600       170
     4.1800       186
     4.2000       202
     4.2200       158
     4.2400       164
     4.2600       178
     4.2800       184
     4.3000       182
     4.3200       166
     4.3400       150
     4.3600       180
     4.3800       158
     4.4000       164
     4.4200       156
     4.4400       156
     4.4600       166
     4.4800       158
     4.5000       188
     4.5200       160
     4.5400       162
     4.5600       184
     4.5800       158
     4.6000       160
     4.6200       170
     4.6400       166
     4.6600       162
     4.6800       162
     4.7000       158
     4.7200       154
     4.7400       172
     4.7600       174
     4.7800       160
     4.8000       158
     4.8200       162
     4.8400       154
     4.8600       158
     4.8800       166
     4.9000       166
     4.9200       160
     4.9400       166
     4.9600       162
     4.9800       154
     5.0000       152
     5.0200       166
     5.0400       146
     5.0600       152
     5.0800       146
     5.1000       150
     5.1200       162
     5.1400       150
     5.1600       142
     5.1800       152
     5.2000       130
     5.2200       126
     5.2400       154
     5.2600       150
     5.2800       160
     5.3000       162
     5.3200       178
     5.3400       164
     5.3600       142
     5.3800       140
     5.4000       162
     5.4200       134
     5.4400       158
     5.4600       140
     5.4800       150
     5.5000       148
     5.5200       156
     5.5400       154
     5.5600       158
     5.5800       172
     5.6000       142
     5.6200       148
     5.6400       158
     5.6600       152
     5.6800       174
     5.7000       154
     5.7200       144
     5.7400       144
     5.7600       154
     5.7800       136
     5.8000       162
     5.8200       172
     5.8400       156
     5.8600       168
     5.8800       158
     5.9000       170
     5.9200       152
     5.9400       132
     5.9600       144
     5.9800       142
     6.0000       166
     6.0200       146
     6.0400       144
     6.0600       152
     6.0800       150
     6.1000       150
     6.1200       136
     6.1400       154
     6.1600       142
     6.1800       156
     6.2000       156
     6.2200       122
     6.2400       130
     6.2600       140
     6.2800       144
     6.3000       136
     6.3200       142
     6.3400       136
     6.3600       144
     6.3800       142
     6.4000       120
     6.4200       144
     6.4400       138
     6.4600       128
     6.4800       124
     6.5000       116
     6.5200       130
     6.5400       138
     6.5600       140
     6.5800       164
     6.6000       140
     6.6200       140
     6.6400       116
     6.6600       132
     6.6800       122
     6.7000       112
     6.7200       136
     6.7400       130
     6.7600       114
     6.7800       142
     6.8000       112
     6.8200       132
     6.8400       128
     6.8600       122
     6.8800       106
     6.9000       124
     6.9200       106
     6.9400       124
     6.9600       122
     6.9800       134
     7.0000       124
     7.0200       120
     7.0400       136
     7.0600        86
     7.0800       102
     7.1000       112
     7.1200       118
     7.1400       138
     7.1600       110
     7.1800       124
     7.2000       122
     7.2200       122
     7.2400       104
     7.2600       110
     7.2800       142
     7.3000       112
     7.3200       110
     7.3400       112
     7.3600       100
     7.3800       108
     7.4000       114
     7.4200       126
     7.4400       106
     7.4600       104
     7.4800       118
     7.5000       112
     7.5200       114
     7.5400        94
     7.5600       132
     7.5800        92
     7.6000       110
     7.6200       108
     7.6400       108
     7.6600       108
     7.6800       106
     7.7000       112
     7.7200       110
     7.7400       134
     7.7600       102
     7.7800       106
     7.8000       116
     7.8200        92
     7.8400       104
     7.8600       126
     7.8800       104
     7.9000       118
     7.9200       106
     7.9400       102
     7.9600        90
     7.9800       110
     8.0000        94
     8.0200        92
     8.0400       108
     8.0600       116
     8.0800       110
     8.1000       102
     8.1200       116
     8.1400        98
     8.1600       110
     8.1800       126
     8.2000        96
     8.2200        96
     8.2400       112
     8.2600       106
     8.2800       112
     8.3000       110
     8.3200       132
     8.3400        92
     8.3600        94
     8.3800       122
     8.4000       116
     8.4200       104
     8.4400       100
     8.4600       134
     8.4800       124
     8.5000       110
     8.5200       120
     8.5400       110
     8.5600       120
     8.5800       112
     8.6000       110
     8.6200       122
     8.6400       136
     8.6600       122
     8.6800       130
     8.7000       116
     8.7200       128
     8.7400       122
     8.7600       116
     8.7800       134
     8.8000       138
     8.8200       122
     8.8400       140
     8.8600       122
     8.8800       136
     8.9000       130
     8.9200       158
     8.9400       132
     8.9600       136
     8.9800        98
     9.0000       150
     9.0200       140
     9.0400       128
     9.0600       126
     9.0800       118
     9.1000       140
     9.1200       150
     9.1400       154
     9.1600       172
     9.1800       196
     9.2000       184
     9.2200       182
     9.2400       220
     9.2600       240
     9.2800       236
     9.3000       262
     9.3200       244
     9.3400       278
     9.3600       272
     9.3800       312
     9.4000       354
     9.4200       404
     9.4400       418
     9.4600       432
     9.4800       422
     9.5000       452
     9.5200       490
     9.5400       484
     9.5600       546
     9.5800       622
     9.6000       848
     9.6200      1078
     9.6400      1308
     9.6600      1544
     9.6800      1598
     9.7000      1494
     9.7200      1442
     9.7400      1370
     9.7600      1218
     9.7800      1080
     9.8000       858
     9.8200       700
     9.8400       468
     9.8600       392
     9.8800       296
     9.9000       292
     9.9200       242
     9.9400       274
     9.9600       234
     9.9800       238
    10.0000       216
    10.0200       156
    10.0400       200
    10.0600       136
    10.0800       112
    10.1000       130
    10.1200       108
    10.1400       120
    10.1600        88
    10.1800        98
    10.2000        82
    10.2200       124
    10.2400       110
    10.2600        88
    10.2800        90
    10.3000        94
    10.3200        96
    10.3400        88
    10.3600       108
    10.3800        88
    10.4000       108
    10.4200       108
    10.4400        82
    10.4600       110
    10.4800        76
    10.5000        94
    10.5200        86
    10.5400       110
    10.5600        96
    10.5800        92
    10.6000        80
    10.6200       106
    10.6400        94
    10.6600       102
    10.6800        90
    10.7000        98
    10.7200        98
    10.7400        98
    10.7600        90
    10.7800        98
    10.8000        98
    10.8200       104
    10.8400        80
    10.8600       106
    10.8800       106
    10.9000        96
    10.9200        80
    10.9400        80
    10.9600       102
    10.9800        94
    11.0000        66
    11.0200        98
    11.0400        88
    11.0600        90
    11.0800       112
    11.1000        86
    11.1200        74
    11.1400        86
    11.1600        98
    11.1800       108
    11.2000        78
    11.2200        84
    11.2400        92
    11.2600        88
    11.2800       100
    11.3000        80
    11.3200        68
    11.3400        86
    11.3600       102
    11.3800        90
    11.4000        70
    11.4200        98
    11.4400        72
    11.4600        68
    11.4800        94
    11.5000        90
    11.5200        80
    11.5400        68
    11.5600        90
    11.5800        82
    11.6000        98
    11.6200        90
    11.6400        70
    11.6600        60
    11.6800        78
    11.7000        70
    11.7200        80
    11.7400        80
    11.7600        84
    11.7800        76
    11.8000        84
    11.8200       104
    11.8400        82
    11.8600        84
    11.8800        78
    11.9000        72
    11.9200        70
    11.9400        54
    11.9600        72
    11.9800        76
    12.0000        82
    12.0200        88
    12.0400        84
    12.0600        88
    12.0800        70
    12.1000        84
    12.1200        76
    12.1400        90
    12.1600        80
    12.1800        68
    12.2000        82
    12.2200        74
    12.2400        84
    12.2600        88
    12.2800        70
    12.3000        74
    12.3200       100
    12.3400        62
    12.3600        74
    12.3800        70
    12.4000        62
    12.4200        78
    12.4400        82
    12.4600        62
    12.4800        58
    12.5000        78
    12.5200        62
    12.5400        78
    12.5600        78
    12.5800        76
    12.6000        90
    12.6200        76
    12.6400        88
    12.6600        60
    12.6800        80
    12.7000        80
    12.7200        76
    12.7400        86
    12.7600        72
    12.7800        78
    12.8000        76
    12.8200        76
    12.8400        74
    12.8600        80
    12.8800        80
    12.9000        80
    12.9200        72
    12.9400        80
    12.9600        68
    12.9800        66
    13.0000        74
    13.0200        80
    13.0400        82
    13.0600        76
    13.0800        54
    13.1000        84
    13.1200        74
    13.1400        76
    13.1600        90
    13.1800        66
    13.2000        66
    13.2200        60
    13.2400        68
    13.2600        86
    13.2800        64
    13.3000        52
    13.3200        70
    13.3400        78
    13.3600        80
    13.3800        84
    13.4000        62
    13.4200        74
    13.4400        78
    13.4600        76
    13.4800        82
    13.5000        68
    13.5200        80
    13.5400        76
    13.5600        86
    13.5800        80
    13.6000        78
    13.6200        78
    13.6400        54
    13.6600        76
    13.6800        58
    13.7000        66
    13.7200        74
    13.7400        86
    13.7600        88
    13.7800        90
    13.8000        86
    13.8200       112
    13.8400        80
    13.8600        94
    13.8800        90
    13.9000        98
    13.9200        98
    13.9400        80
    13.9600        84
    13.9800        68
    14.0000        74
    14.0200        68
    14.0400        72
    14.0600        74
    14.0800        80
    14.1000        56
    14.1200        64
    14.1400        64
    14.1600        50
    14.1800        76
    14.2000        58
    14.2200        62
    14.2400        82
    14.2600        66
    14.2800        56
    14.3000        66
    14.3200        58
    14.3400        62
    14.3600        68
    14.3800        76
    14.4000        60
    14.4200        68
    14.4400        72
    14.4600        64
    14.4800        56
    14.5000        64
    14.5200        52
    14.5400        84
    14.5600        64
    14.5800        66
    14.6000        54
    14.6200        76
    14.6400        68
    14.6600        66
    14.6800        62
    14.7000        62
    14.7200        60
    14.7400        64
    14.7600        58
    14.7800        56
    14.8000        70
    14.8200        68
    14.8400        52
    14.8600        70
    14.8800        54
    14.9000        60
    14.9200        56
    14.9400        58
    14.9600        68
    14.9800        64
    15.0000        52
    15.0200        56
    15.0400        66
    15.0600        62
    15.0800        58
    15.1000        54
    15.1200        58
    15.1400        68
    15.1600        62
    15.1800        60
    15.2000        54
    15.2200        52
    15.2400        72
    15.2600        58
    15.2800        72
    15.3000        38
    15.3200        68
    15.3400        68
    15.3600        74
    15.3800        78
    15.4000        74
    15.4200        52
    15.4400        56
    15.4600        58
    15.4800        58
    15.5000        62
    15.5200        62
    15.5400        70
    15.5600        54
    15.5800        52
    15.6000        46
    15.6200        48
    15.6400        50
    15.6600        46
    15.6800        64
    15.7000        70
    15.7200        62
    15.7400        54
    15.7600        54
    15.7800        58
    15.8000        48
    15.8200        78
    15.8400        64
    15.8600        64
    15.8800        62
    15.9000        76
    15.9200        50
    15.9400        54
    15.9600        62
    15.9800        50
    16.0000        60
    16.0200        50
    16.0400        50
    16.0600        72
    16.0800        50
    16.1000        72
    16.1200        70
    16.1400        72
    16.1600        72
    16.1800        78
    16.2000        74
    16.2200        82
    16.2400        84
    16.2600        96
    16.2800        86
    16.3000       104
    16.3200        82
    16.3400       116
    16.3600        88
    16.3800       100
    16.4000       110
    16.4200        90
    16.4400        86
    16.4600        82
    16.4800        74
    16.5000       102
    16.5200        92
    16.5400        96
    16.5600       100
    16.5800        88
    16.6000        76
    16.6200        88
    16.6400       108
    16.6600       128
    16.6800       142
    16.7000       138
    16.7200       152
    16.7400       158
    16.7600       136
    16.7800       154
    16.8000       100
    16.8200       118
    16.8400       112
    16.8600        98
    16.8800        78
    16.9000        82
    16.9200        58
    16.9400        76
    16.9600        82
    16.9800        76
    17.0000        70
    17.0200        58
    17.0400        74
    17.0600        76
    17.0800        54
    17.1000        72
    17.1200        56
    17.1400        52
    17.1600        56
    17.1800        64
    17.2000        56
    17.2200        60
    17.2400        52
    17.2600        58
    17.2800        40
    17.3000        58
    17.3200        62
    17.3400        48
    17.3600        62
    17.3800        60
    17.4000        68
    17.4200        50
    17.4400        52
    17.4600        70
    17.4800        56
    17.5000        56
    17.5200        56
    17.5400        62
    17.5600        48
    17.5800        56
    17.6000        50
    17.6200        68
    17.6400        56
    17.6600        58
    17.6800        52
    17.7000        60
    17.7200        70
    17.7400        44
    17.7600        68
    17.7800        36
    17.8000        52
    17.8200        56
    17.8400        50
    17.8600        46
    17.8800        50
    17.9000        60
    17.9200        46
    17.9400        44
    17.9600        66
    17.9800        64
    18.0000        66
    18.0200        58
    18.0400        70
    18.0600        64
    18.0800        60
    18.1000        70
    18.1200        56
    18.1400        52
    18.1600        60
    18.1800        76
    18.2000        46
    18.2200        52
    18.2400        64
    18.2600        54
    18.2800        58
    18.3000        54
    18.3200        60
    18.3400        58
    18.3600        66
    18.3800        56
    18.4000        66
    18.4200        52
    18.4400        56
    18.4600        56
    18.4800        56
    18.5000        70
    18.5200        66
    18.5400        54
    18.5600        62
    18.5800        48
    18.6000        66
    18.6200        66
    18.6400        62
    18.6600        60
    18.6800        70
    18.7000        78
    18.7200        78
    18.7400        72
    18.7600        78
    18.7800        76
    18.8000       120
    18.8200        94
    18.8400       108
    18.8600       122
    18.8800       146
    18.9000       144
    18.9200       198
    18.9400       218
    18.9600       264
    18.9800       318
    19.0000       320
    19.0200       338
    19.0400       406
    19.0600       390
    19.0800       372
    19.1000       380
    19.1200       360
    19.1400       304
    19.1600       276
    19.1800       244
    19.2000       202
    19.2200       156
    19.2400       136
    19.2600       118
    19.2800       102
    19.3000        86
    19.3200       110
    19.3400       106
    19.3600       104
    19.3800       118
    19.4000       114
    19.4200       130
    19.4400       138
    19.4600       120
    19.4800       132
    19.5000       136
    19.5200       110
    19.5400        96
    19.5600       122
    19.5800       102
    19.6000        74
    19.6200        92
    19.6400        76
    19.6600        72
    19.6800        66
    19.7000        68
    19.7200        60
    19.7400        76
    19.7600        70
    19.7800        80
    19.8000        72
    19.8200        68
    19.8400        84
    19.8600        80
    19.8800        94
    19.9000        92
    19.9200        94
    19.9400       100
    19.9600        76
    19.9800        88
    20.0000        66
    20.0200        82
    20.0400        80
    20.0600        58
    20.0800        54
    20.1000        46
    20.1200        56
    20.1400        52
    20.1600        68
    20.1800        52
    20.2000        48
    20.2200        54
    20.2400        50
    20.2600        54
    20.2800        54
    20.3000        56
    20.3200        58
    20.3400        56
    20.3600        60
    20.3800        56
