/////////////////////////////////////////////////////////////////////////////////
/// Profile Data Ascii Dump (XRD)                                             ///
/////////////////////////////////////////////////////////////////////////////////

  Group     : Swayze
  Data      : GDS819
  File Name : GDS819.RAW

# Profile Datafile
          comment             = Palygorskite 
          date & time         = 08-04-01 05:46:03 

# Measurement Condition
    X-ray tube
          target              = Cu 
          voltage             = 40.0 (kV)
          current             = 30.0 (mA)
    Slits
          divergence slit     = 2.00000 (deg) 
          scatter slit        = 2.00000 (deg) 
          receiving slit      = 0.15000 (mm)  
    Scanning
          drive axis          = Theta-2Theta 
          scan range          =    4.000 -   65.000 
          scan mode           = Continuous Scan 
          scan speed          =   2.0000 (deg/min) 
          sampling pitch      =   0.0200 (deg) 
          preset time         =   0.60 (sec) 

# Data      [ Total No. = 3051 ]
  <2Theta>   <   I   >
     4.0000       290
     4.0200       290
     4.0400       260
     4.0600       284
     4.0800       272
     4.1000       262
     4.1200       254
     4.1400       270
     4.1600       268
     4.1800       240
     4.2000       264
     4.2200       278
     4.2400       276
     4.2600       278
     4.2800       278
     4.3000       256
     4.3200       258
     4.3400       252
     4.3600       244
     4.3800       280
     4.4000       254
     4.4200       216
     4.4400       234
     4.4600       248
     4.4800       238
     4.5000       232
     4.5200       252
     4.5400       230
     4.5600       276
     4.5800       230
     4.6000       240
     4.6200       238
     4.6400       222
     4.6600       226
     4.6800       230
     4.7000       268
     4.7200       218
     4.7400       238
     4.7600       250
     4.7800       236
     4.8000       246
     4.8200       250
     4.8400       230
     4.8600       250
     4.8800       232
     4.9000       258
     4.9200       246
     4.9400       234
     4.9600       232
     4.9800       224
     5.0000       238
     5.0200       216
     5.0400       220
     5.0600       218
     5.0800       236
     5.1000       216
     5.1200       274
     5.1400       220
     5.1600       266
     5.1800       208
     5.2000       238
     5.2200       236
     5.2400       232
     5.2600       240
     5.2800       244
     5.3000       238
     5.3200       242
     5.3400       208
     5.3600       218
     5.3800       236
     5.4000       236
     5.4200       228
     5.4400       212
     5.4600       186
     5.4800       254
     5.5000       234
     5.5200       240
     5.5400       238
     5.5600       224
     5.5800       236
     5.6000       226
     5.6200       232
     5.6400       260
     5.6600       290
     5.6800       244
     5.7000       216
     5.7200       226
     5.7400       238
     5.7600       256
     5.7800       224
     5.8000       236
     5.8200       258
     5.8400       200
     5.8600       252
     5.8800       232
     5.9000       206
     5.9200       230
     5.9400       260
     5.9600       254
     5.9800       264
     6.0000       224
     6.0200       246
     6.0400       266
     6.0600       244
     6.0800       226
     6.1000       212
     6.1200       232
     6.1400       210
     6.1600       280
     6.1800       246
     6.2000       246
     6.2200       230
     6.2400       244
     6.2600       256
     6.2800       242
     6.3000       246
     6.3200       254
     6.3400       236
     6.3600       232
     6.3800       242
     6.4000       248
     6.4200       238
     6.4400       234
     6.4600       258
     6.4800       226
     6.5000       246
     6.5200       254
     6.5400       254
     6.5600       236
     6.5800       254
     6.6000       258
     6.6200       222
     6.6400       254
     6.6600       226
     6.6800       240
     6.7000       250
     6.7200       234
     6.7400       224
     6.7600       256
     6.7800       256
     6.8000       232
     6.8200       238
     6.8400       256
     6.8600       248
     6.8800       216
     6.9000       254
     6.9200       250
     6.9400       262
     6.9600       254
     6.9800       238
     7.0000       236
     7.0200       220
     7.0400       262
     7.0600       228
     7.0800       228
     7.1000       250
     7.1200       216
     7.1400       234
     7.1600       250
     7.1800       286
     7.2000       248
     7.2200       230
     7.2400       244
     7.2600       224
     7.2800       218
     7.3000       232
     7.3200       262
     7.3400       278
     7.3600       218
     7.3800       266
     7.4000       254
     7.4200       290
     7.4400       278
     7.4600       228
     7.4800       248
     7.5000       268
     7.5200       260
     7.5400       282
     7.5600       266
     7.5800       290
     7.6000       294
     7.6200       260
     7.6400       282
     7.6600       298
     7.6800       314
     7.7000       314
     7.7200       340
     7.7400       294
     7.7600       330
     7.7800       366
     7.8000       362
     7.8200       346
     7.8400       350
     7.8600       382
     7.8800       406
     7.9000       364
     7.9200       408
     7.9400       360
     7.9600       408
     7.9800       442
     8.0000       470
     8.0200       476
     8.0400       510
     8.0600       514
     8.0800       600
     8.1000       544
     8.1200       596
     8.1400       646
     8.1600       644
     8.1800       728
     8.2000       754
     8.2200       820
     8.2400       898
     8.2600       916
     8.2800       942
     8.3000       922
     8.3200      1074
     8.3400      1056
     8.3600      1034
     8.3800      1082
     8.4000      1010
     8.4200      1008
     8.4400       904
     8.4600       904
     8.4800       884
     8.5000       838
     8.5200       792
     8.5400       742
     8.5600       658
     8.5800       670
     8.6000       558
     8.6200       514
     8.6400       490
     8.6600       414
     8.6800       362
     8.7000       366
     8.7200       294
     8.7400       272
     8.7600       272
     8.7800       244
     8.8000       228
     8.8200       214
     8.8400       174
     8.8600       214
     8.8800       188
     8.9000       188
     8.9200       192
     8.9400       158
     8.9600       182
     8.9800       160
     9.0000       170
     9.0200       164
     9.0400       148
     9.0600       152
     9.0800       154
     9.1000       140
     9.1200       150
     9.1400       142
     9.1600       134
     9.1800       126
     9.2000       124
     9.2200       124
     9.2400       142
     9.2600       122
     9.2800       128
     9.3000       124
     9.3200       136
     9.3400       136
     9.3600       148
     9.3800       124
     9.4000       122
     9.4200       134
     9.4400       132
     9.4600       138
     9.4800       150
     9.5000       130
     9.5200       144
     9.5400       136
     9.5600       132
     9.5800       136
     9.6000       126
     9.6200       100
     9.6400       126
     9.6600       128
     9.6800       120
     9.7000       126
     9.7200       120
     9.7400       136
     9.7600       114
     9.7800       116
     9.8000       126
     9.8200       132
     9.8400       130
     9.8600       108
     9.8800       112
     9.9000       104
     9.9200       122
     9.9400       138
     9.9600       122
     9.9800       128
    10.0000       114
    10.0200       132
    10.0400       126
    10.0600       114
    10.0800       120
    10.1000       128
    10.1200       126
    10.1400        96
    10.1600       114
    10.1800       112
    10.2000        96
    10.2200       124
    10.2400       118
    10.2600       108
    10.2800       110
    10.3000        96
    10.3200       122
    10.3400       104
    10.3600        86
    10.3800       100
    10.4000       124
    10.4200       100
    10.4400        98
    10.4600       122
    10.4800       102
    10.5000       108
    10.5200       110
    10.5400       108
    10.5600       106
    10.5800       102
    10.6000        84
    10.6200       110
    10.6400        94
    10.6600       110
    10.6800        98
    10.7000       114
    10.7200        94
    10.7400       110
    10.7600       116
    10.7800       108
    10.8000        94
    10.8200        98
    10.8400        92
    10.8600        84
    10.8800       106
    10.9000        76
    10.9200        96
    10.9400        78
    10.9600        96
    10.9800        80
    11.0000       102
    11.0200       110
    11.0400       114
    11.0600       102
    11.0800        90
    11.1000        86
    11.1200       112
    11.1400        82
    11.1600        70
    11.1800        84
    11.2000        92
    11.2200        98
    11.2400        94
    11.2600        80
    11.2800       106
    11.3000       104
    11.3200        90
    11.3400        94
    11.3600        92
    11.3800        86
    11.4000        86
    11.4200        94
    11.4400        90
    11.4600        98
    11.4800        92
    11.5000        92
    11.5200       100
    11.5400        96
    11.5600        96
    11.5800       100
    11.6000        88
    11.6200        96
    11.6400        94
    11.6600        98
    11.6800        96
    11.7000        86
    11.7200        96
    11.7400        96
    11.7600        64
    11.7800        90
    11.8000       106
    11.8200        90
    11.8400        88
    11.8600        76
    11.8800        72
    11.9000        92
    11.9200        90
    11.9400        84
    11.9600        74
    11.9800       106
    12.0000       104
    12.0200        90
    12.0400        88
    12.0600        76
    12.0800        92
    12.1000        94
    12.1200        92
    12.1400        80
    12.1600        92
    12.1800        80
    12.2000        86
    12.2200        96
    12.2400       102
    12.2600        76
    12.2800        74
    12.3000        96
    12.3200        78
    12.3400        92
    12.3600        74
    12.3800        72
    12.4000        92
    12.4200        92
    12.4400        92
    12.4600        94
    12.4800        90
    12.5000        78
    12.5200        92
    12.5400        58
    12.5600        80
    12.5800       102
    12.6000        86
    12.6200        76
    12.6400        72
    12.6600        78
    12.6800        86
    12.7000        62
    12.7200        76
    12.7400        78
    12.7600        64
    12.7800        76
    12.8000        78
    12.8200        82
    12.8400        94
    12.8600        94
    12.8800        70
    12.9000        68
    12.9200        74
    12.9400        90
    12.9600        80
    12.9800        78
    13.0000        88
    13.0200       100
    13.0400        94
    13.0600        96
    13.0800        84
    13.1000       100
    13.1200       108
    13.1400        94
    13.1600        88
    13.1800        94
    13.2000        96
    13.2200        98
    13.2400        92
    13.2600        92
    13.2800       114
    13.3000       102
    13.3200       102
    13.3400       134
    13.3600       108
    13.3800       132
    13.4000       126
    13.4200       128
    13.4400       118
    13.4600       104
    13.4800       142
    13.5000       122
    13.5200       120
    13.5400       146
    13.5600       150
    13.5800       152
    13.6000       146
    13.6200       150
    13.6400       170
    13.6600       174
    13.6800       150
    13.7000       154
    13.7200       164
    13.7400       168
    13.7600       160
    13.7800       162
    13.8000       158
    13.8200       146
    13.8400       170
    13.8600       154
    13.8800       124
    13.9000       154
    13.9200       142
    13.9400       140
    13.9600       130
    13.9800       108
    14.0000       112
    14.0200       104
    14.0400       116
    14.0600       102
    14.0800        96
    14.1000        78
    14.1200        86
    14.1400        94
    14.1600        94
    14.1800       104
    14.2000        82
    14.2200        84
    14.2400        80
    14.2600        94
    14.2800        84
    14.3000        98
    14.3200        90
    14.3400        92
    14.3600        86
    14.3800        84
    14.4000        62
    14.4200        72
    14.4400        70
    14.4600        56
    14.4800        78
    14.5000        66
    14.5200        88
    14.5400        74
    14.5600        56
    14.5800        84
    14.6000        74
    14.6200        74
    14.6400        80
    14.6600        70
    14.6800        86
    14.7000        86
    14.7200        66
    14.7400        82
    14.7600        74
    14.7800        74
    14.8000        66
    14.8200        74
    14.8400        58
    14.8600        78
    14.8800        72
    14.9000        60
    14.9200        70
    14.9400        86
    14.9600        64
    14.9800        74
    15.0000        60
    15.0200        66
    15.0400        62
    15.0600        76
    15.0800        68
    15.1000        72
    15.1200        56
    15.1400        54
    15.1600        66
    15.1800        70
    15.2000        68
    15.2200        74
    15.2400        56
    15.2600        64
    15.2800        66
    15.3000        72
    15.3200        60
    15.3400        76
    15.3600        70
    15.3800        56
    15.4000        74
    15.4200        64
    15.4400        72
    15.4600        70
    15.4800        78
    15.5000        58
    15.5200        74
    15.5400        72
    15.5600        66
    15.5800        64
    15.6000        80
    15.6200        72
    15.6400        72
    15.6600        66
    15.6800        58
    15.7000        72
    15.7200        70
    15.7400        54
    15.7600        60
    15.7800        66
    15.8000        52
    15.8200        72
    15.8400        70
    15.8600        86
    15.8800        66
    15.9000        80
    15.9200        80
    15.9400        94
    15.9600        78
    15.9800        72
    16.0000        68
    16.0200        92
    16.0400        64
    16.0600        86
    16.0800        96
    16.1000        84
    16.1200        98
    16.1400       102
    16.1600       104
    16.1800       100
    16.2000       126
    16.2200       132
    16.2400       140
    16.2600       134
    16.2800       132
    16.3000       136
    16.3200       146
    16.3400       122
    16.3600       134
    16.3800       156
    16.4000       124
    16.4200       112
    16.4400       138
    16.4600       140
    16.4800       120
    16.5000       128
    16.5200       134
    16.5400        96
    16.5600        96
    16.5800        64
    16.6000        84
    16.6200        96
    16.6400        76
    16.6600        86
    16.6800        64
    16.7000        76
    16.7200        94
    16.7400        70
    16.7600        70
    16.7800        70
    16.8000        68
    16.8200        78
    16.8400        74
    16.8600        60
    16.8800        84
    16.9000        78
    16.9200        86
    16.9400        72
    16.9600        68
    16.9800        60
    17.0000        64
    17.0200        68
    17.0400        70
    17.0600        72
    17.0800        82
    17.1000        76
    17.1200        60
    17.1400        56
    17.1600        82
    17.1800        64
    17.2000        76
    17.2200        74
    17.2400        72
    17.2600        52
    17.2800        70
    17.3000        60
    17.3200        70
    17.3400        70
    17.3600        58
    17.3800        72
    17.4000        58
    17.4200        90
    17.4400        70
    17.4600        60
    17.4800        64
    17.5000        52
    17.5200        70
    17.5400        80
    17.5600        62
    17.5800        72
    17.6000        62
    17.6200        60
    17.6400        54
    17.6600        66
    17.6800        56
    17.7000        64
    17.7200        70
    17.7400        56
    17.7600        70
    17.7800        66
    17.8000        66
    17.8200        64
    17.8400        60
    17.8600        60
    17.8800        60
    17.9000        52
    17.9200        66
    17.9400        56
    17.9600        52
    17.9800        58
    18.0000        70
    18.0200        62
    18.0400        58
    18.0600        70
    18.0800        66
    18.1000        74
    18.1200        68
    18.1400        64
    18.1600        72
    18.1800        60
    18.2000        58
    18.2200        56
    18.2400        56
    18.2600        72
    18.2800        64
    18.3000        54
    18.3200        68
    18.3400        60
    18.3600        66
    18.3800        70
    18.4000        70
    18.4200        70
    18.4400        60
    18.4600        66
    18.4800        70
    18.5000        64
    18.5200        64
    18.5400        60
    18.5600        58
    18.5800        58
    18.6000        64
    18.6200        74
    18.6400        62
    18.6600        54
    18.6800        70
    18.7000        68
    18.7200        54
    18.7400        62
    18.7600        62
    18.7800        66
    18.8000        60
    18.8200        86
    18.8400        52
    18.8600        74
    18.8800        78
    18.9000        84
    18.9200        74
    18.9400        54
    18.9600        70
    18.9800        68
    19.0000        58
    19.0200        66
    19.0400        68
    19.0600        62
    19.0800        76
    19.1000        64
    19.1200        62
    19.1400        58
    19.1600        70
    19.1800        70
    19.2000        58
    19.2200        76
    19.2400        68
    19.2600        96
    19.2800        68
    19.3000        54
    19.3200        94
    19.3400        70
    19.3600        70
    19.3800        76
    19.4000        72
    19.4200        80
    19.4400        76
    19.4600       104
    19.4800       108
    19.5000       114
    19.5200       108
    19.5400       106
    19.5600       108
    19.5800       126
    19.6000       106
    19.6200       132
    19.6400       136
    19.6600       140
    19.6800       142
    19.7000       150
    19.7200       188
    19.7400       212
    19.7600       190
    19.7800       214
    19.8000       236
    19.8200       222
    19.8400       244
    19.8600       224
    19.8800       248
    19.9000       250
    19.9200       216
    19.9400       202
    19.9600       180
    19.9800       168
    20.0000       158
    20.0200       132
    20.0400       118
    20.0600       136
    20.0800       138
    20.1000       108
    20.1200        86
    20.1400       126
    20.1600       100
    20.1800        86
    20.2000        76
    20.2200        80
    20.2400        94
    20.2600        96
    20.2800        96
    20.3000        94
    20.3200       104
    20.3400        90
    20.3600        86
    20.3800        94
