/////////////////////////////////////////////////////////////////////////////////
/// Profile Data Ascii Dump (XRD)                                             ///
/////////////////////////////////////////////////////////////////////////////////

  Group     : Swayze
  Data      : GDS822
  File Name : GDS822.RAW

# Profile Datafile
          comment             =   
          date & time         = 08-03-11 06:36:46 

# Measurement Condition
    X-ray tube
          target              = Cu 
          voltage             = 40.0 (kV)
          current             = 30.0 (mA)
    Slits
          divergence slit     = 2.00000 (deg) 
          scatter slit        = 2.00000 (deg) 
          receiving slit      = 0.15000 (mm)  
    Scanning
          drive axis          = Theta-2Theta 
          scan range          =    4.000 -   65.000 
          scan mode           = Continuous Scan 
          scan speed          =   2.0000 (deg/min) 
          sampling pitch      =   0.0200 (deg) 
          preset time         =   0.60 (sec) 

# Data      [ Total No. = 3051 ]
  <2Theta>   <   I   >
     4.0000       170
     4.0200       188
     4.0400       194
     4.0600       182
     4.0800       190
     4.1000       186
     4.1200       144
     4.1400       164
     4.1600       166
     4.1800       176
     4.2000       162
     4.2200       174
     4.2400       184
     4.2600       146
     4.2800       186
     4.3000       194
     4.3200       188
     4.3400       178
     4.3600       186
     4.3800       178
     4.4000       176
     4.4200       172
     4.4400       192
     4.4600       148
     4.4800       164
     4.5000       152
     4.5200       146
     4.5400       186
     4.5600       142
     4.5800       166
     4.6000       172
     4.6200       170
     4.6400       152
     4.6600       168
     4.6800       190
     4.7000       166
     4.7200       166
     4.7400       164
     4.7600       166
     4.7800       160
     4.8000       188
     4.8200       172
     4.8400       156
     4.8600       168
     4.8800       166
     4.9000       164
     4.9200       178
     4.9400       174
     4.9600       156
     4.9800       166
     5.0000       178
     5.0200       168
     5.0400       156
     5.0600       154
     5.0800       168
     5.1000       152
     5.1200       144
     5.1400       162
     5.1600       162
     5.1800       156
     5.2000       160
     5.2200       160
     5.2400       142
     5.2600       162
     5.2800       168
     5.3000       194
     5.3200       168
     5.3400       166
     5.3600       184
     5.3800       170
     5.4000       156
     5.4200       158
     5.4400       160
     5.4600       166
     5.4800       172
     5.5000       158
     5.5200       200
     5.5400       164
     5.5600       170
     5.5800       130
     5.6000       160
     5.6200       156
     5.6400       188
     5.6600       156
     5.6800       170
     5.7000       158
     5.7200       156
     5.7400       166
     5.7600       144
     5.7800       154
     5.8000       174
     5.8200       182
     5.8400       160
     5.8600       154
     5.8800       170
     5.9000       156
     5.9200       162
     5.9400       160
     5.9600       154
     5.9800       124
     6.0000       152
     6.0200       158
     6.0400       168
     6.0600       144
     6.0800       148
     6.1000       176
     6.1200       150
     6.1400       150
     6.1600       148
     6.1800       130
     6.2000       176
     6.2200       174
     6.2400       140
     6.2600       132
     6.2800       156
     6.3000       132
     6.3200       160
     6.3400       132
     6.3600       156
     6.3800       160
     6.4000       148
     6.4200       144
     6.4400       122
     6.4600       158
     6.4800       150
     6.5000       138
     6.5200       112
     6.5400       150
     6.5600       130
     6.5800       142
     6.6000       132
     6.6200       146
     6.6400       130
     6.6600       138
     6.6800       122
     6.7000       120
     6.7200       124
     6.7400       122
     6.7600       140
     6.7800       140
     6.8000       118
     6.8200       128
     6.8400       124
     6.8600       136
     6.8800       116
     6.9000       128
     6.9200       152
     6.9400       148
     6.9600       126
     6.9800       128
     7.0000       130
     7.0200       130
     7.0400       114
     7.0600       124
     7.0800       132
     7.1000       104
     7.1200       108
     7.1400       142
     7.1600       134
     7.1800       118
     7.2000       100
     7.2200       122
     7.2400       112
     7.2600       140
     7.2800       134
     7.3000       138
     7.3200       102
     7.3400       114
     7.3600       134
     7.3800       104
     7.4000       122
     7.4200       118
     7.4400       118
     7.4600       124
     7.4800       136
     7.5000       128
     7.5200       120
     7.5400       124
     7.5600       116
     7.5800       122
     7.6000       120
     7.6200       104
     7.6400       138
     7.6600       120
     7.6800       130
     7.7000       138
     7.7200       128
     7.7400       132
     7.7600       136
     7.7800       132
     7.8000       124
     7.8200       112
     7.8400       126
     7.8600       112
     7.8800       118
     7.9000       128
     7.9200       118
     7.9400       132
     7.9600       114
     7.9800       124
     8.0000       144
     8.0200       114
     8.0400       120
     8.0600       126
     8.0800       112
     8.1000       118
     8.1200        92
     8.1400       136
     8.1600       116
     8.1800       132
     8.2000       132
     8.2200       132
     8.2400       112
     8.2600       112
     8.2800       108
     8.3000       136
     8.3200       126
     8.3400       134
     8.3600       120
     8.3800        98
     8.4000       122
     8.4200       146
     8.4400       126
     8.4600       132
     8.4800       110
     8.5000       116
     8.5200       122
     8.5400       134
     8.5600       132
     8.5800       124
     8.6000       102
     8.6200       126
     8.6400       120
     8.6600       134
     8.6800       108
     8.7000       132
     8.7200       112
     8.7400       112
     8.7600       108
     8.7800       120
     8.8000       120
     8.8200       124
     8.8400       130
     8.8600       148
     8.8800       112
     8.9000       106
     8.9200       108
     8.9400       106
     8.9600       122
     8.9800       120
     9.0000       122
     9.0200       114
     9.0400       116
     9.0600       110
     9.0800       116
     9.1000       124
     9.1200        96
     9.1400       112
     9.1600       136
     9.1800       102
     9.2000       114
     9.2200       106
     9.2400       116
     9.2600       104
     9.2800        98
     9.3000       114
     9.3200       128
     9.3400       144
     9.3600       110
     9.3800       122
     9.4000       132
     9.4200       108
     9.4400       128
     9.4600       104
     9.4800       104
     9.5000       106
     9.5200       106
     9.5400       120
     9.5600        98
     9.5800       112
     9.6000       138
     9.6200       118
     9.6400       120
     9.6600       110
     9.6800       100
     9.7000       140
     9.7200       120
     9.7400       110
     9.7600       102
     9.7800        74
     9.8000       104
     9.8200       114
     9.8400       126
     9.8600        90
     9.8800        96
     9.9000       102
     9.9200       106
     9.9400        96
     9.9600       108
     9.9800       116
    10.0000        94
    10.0200       122
    10.0400       112
    10.0600       122
    10.0800       110
    10.1000        98
    10.1200       122
    10.1400       100
    10.1600       104
    10.1800       126
    10.2000       108
    10.2200        98
    10.2400        98
    10.2600       114
    10.2800        98
    10.3000        98
    10.3200       104
    10.3400        96
    10.3600       112
    10.3800       100
    10.4000        96
    10.4200        98
    10.4400       116
    10.4600        94
    10.4800        96
    10.5000        92
    10.5200        96
    10.5400       122
    10.5600       106
    10.5800       114
    10.6000        92
    10.6200        94
    10.6400        94
    10.6600       112
    10.6800        94
    10.7000       126
    10.7200        76
    10.7400       100
    10.7600        96
    10.7800        88
    10.8000        82
    10.8200        96
    10.8400        92
    10.8600       102
    10.8800        90
    10.9000        92
    10.9200       100
    10.9400        90
    10.9600       110
    10.9800       100
    11.0000        92
    11.0200       102
    11.0400        98
    11.0600       102
    11.0800        86
    11.1000        90
    11.1200        82
    11.1400       102
    11.1600        90
    11.1800        90
    11.2000        80
    11.2200        92
    11.2400        84
    11.2600        80
    11.2800        92
    11.3000       100
    11.3200       100
    11.3400       102
    11.3600        80
    11.3800        80
    11.4000       112
    11.4200        92
    11.4400        92
    11.4600        78
    11.4800        78
    11.5000       100
    11.5200        88
    11.5400        80
    11.5600        92
    11.5800        96
    11.6000        82
    11.6200        96
    11.6400        92
    11.6600        82
    11.6800        64
    11.7000        94
    11.7200        74
    11.7400       104
    11.7600        86
    11.7800        80
    11.8000        68
    11.8200        92
    11.8400        94
    11.8600        98
    11.8800        84
    11.9000        90
    11.9200        92
    11.9400        94
    11.9600        72
    11.9800        72
    12.0000       102
    12.0200        76
    12.0400        94
    12.0600        94
    12.0800        94
    12.1000       102
    12.1200        82
    12.1400        74
    12.1600        72
    12.1800        90
    12.2000        88
    12.2200        98
    12.2400        86
    12.2600        80
    12.2800        92
    12.3000        90
    12.3200        72
    12.3400        70
    12.3600        88
    12.3800        72
    12.4000        92
    12.4200        92
    12.4400        88
    12.4600        92
    12.4800        98
    12.5000        72
    12.5200        98
    12.5400        72
    12.5600        86
    12.5800        76
    12.6000        86
    12.6200        80
    12.6400        78
    12.6600        68
    12.6800        62
    12.7000        84
    12.7200        56
    12.7400        62
    12.7600        84
    12.7800        66
    12.8000        82
    12.8200        72
    12.8400        74
    12.8600        74
    12.8800        94
    12.9000        66
    12.9200        64
    12.9400        76
    12.9600        72
    12.9800        76
    13.0000        70
    13.0200        78
    13.0400        72
    13.0600        86
    13.0800        88
    13.1000        64
    13.1200        80
    13.1400        60
    13.1600        60
    13.1800        72
    13.2000        60
    13.2200        58
    13.2400        80
    13.2600        80
    13.2800        92
    13.3000        62
    13.3200        78
    13.3400        74
    13.3600        72
    13.3800        72
    13.4000        74
    13.4200        76
    13.4400        72
    13.4600        76
    13.4800        80
    13.5000        72
    13.5200        78
    13.5400        72
    13.5600        66
    13.5800        76
    13.6000        76
    13.6200        80
    13.6400        78
    13.6600        68
    13.6800        68
    13.7000        66
    13.7200        78
    13.7400        64
    13.7600        82
    13.7800        66
    13.8000        68
    13.8200        88
    13.8400        68
    13.8600        72
    13.8800        76
    13.9000        60
    13.9200        60
    13.9400        72
    13.9600        56
    13.9800        72
    14.0000        66
    14.0200        68
    14.0400        70
    14.0600        78
    14.0800        78
    14.1000        62
    14.1200        64
    14.1400        76
    14.1600        66
    14.1800        56
    14.2000        70
    14.2200        66
    14.2400        76
    14.2600        64
    14.2800        72
    14.3000        66
    14.3200        66
    14.3400        52
    14.3600        54
    14.3800        76
    14.4000        84
    14.4200        82
    14.4400        72
    14.4600        76
    14.4800        62
    14.5000        60
    14.5200        72
    14.5400        76
    14.5600        68
    14.5800        62
    14.6000        78
    14.6200        58
    14.6400        78
    14.6600        74
    14.6800        62
    14.7000        72
    14.7200        76
    14.7400        80
    14.7600        82
    14.7800        58
    14.8000        76
    14.8200        74
    14.8400        62
    14.8600        58
    14.8800        54
    14.9000        64
    14.9200        80
    14.9400        72
    14.9600        66
    14.9800        62
    15.0000        64
    15.0200        62
    15.0400        70
    15.0600        76
    15.0800        52
    15.1000        64
    15.1200        62
    15.1400        64
    15.1600        62
    15.1800        84
    15.2000        78
    15.2200        74
    15.2400        98
    15.2600        74
    15.2800        92
    15.3000        94
    15.3200       108
    15.3400        96
    15.3600       126
    15.3800       128
    15.4000       136
    15.4200       134
    15.4400       128
    15.4600       122
    15.4800       104
    15.5000        96
    15.5200        92
    15.5400        94
    15.5600       106
    15.5800        64
    15.6000        76
    15.6200        72
    15.6400        64
    15.6600        74
    15.6800        76
    15.7000        56
    15.7200        90
    15.7400        52
    15.7600        62
    15.7800        60
    15.8000        58
    15.8200        62
    15.8400        58
    15.8600        66
    15.8800        54
    15.9000        60
    15.9200        36
    15.9400        68
    15.9600        66
    15.9800        58
    16.0000        56
    16.0200        60
    16.0400        70
    16.0600        74
    16.0800        54
    16.1000        64
    16.1200        44
    16.1400        64
    16.1600        64
    16.1800        40
    16.2000        74
    16.2200        58
    16.2400        60
    16.2600        72
    16.2800        54
    16.3000        70
    16.3200        40
    16.3400        46
    16.3600        54
    16.3800        68
    16.4000        50
    16.4200        68
    16.4400        58
    16.4600        52
    16.4800        62
    16.5000        48
    16.5200        68
    16.5400        52
    16.5600        62
    16.5800        66
    16.6000        56
    16.6200        64
    16.6400        44
    16.6600        68
    16.6800        56
    16.7000        60
    16.7200        50
    16.7400        60
    16.7600        64
    16.7800        68
    16.8000        44
    16.8200        64
    16.8400        42
    16.8600        58
    16.8800        50
    16.9000        44
    16.9200        54
    16.9400        68
    16.9600        66
    16.9800        72
    17.0000        68
    17.0200        50
    17.0400        58
    17.0600        62
    17.0800        62
    17.1000        60
    17.1200        70
    17.1400        66
    17.1600        52
    17.1800        56
    17.2000        74
    17.2200        84
    17.2400        60
    17.2600        74
    17.2800        60
    17.3000        52
    17.3200        72
    17.3400        68
    17.3600        66
    17.3800        74
    17.4000        66
    17.4200        76
    17.4400        90
    17.4600        90
    17.4800        92
    17.5000       114
    17.5200       138
    17.5400       144
    17.5600       134
    17.5800       150
    17.6000       150
    17.6200       174
    17.6400       204
    17.6600       238
    17.6800       288
    17.7000       316
    17.7200       360
    17.7400       458
    17.7600       538
    17.7800       656
    17.8000       738
    17.8200       738
    17.8400       784
    17.8600       762
    17.8800       712
    17.9000       630
    17.9200       500
    17.9400       470
    17.9600       462
    17.9800       384
    18.0000       330
    18.0200       290
    18.0400       222
    18.0600       168
    18.0800       140
    18.1000       110
    18.1200       100
    18.1400        92
    18.1600        86
    18.1800        70
    18.2000        64
    18.2200        62
    18.2400        58
    18.2600        66
    18.2800        82
    18.3000        68
    18.3200        60
    18.3400        54
    18.3600        48
    18.3800        76
    18.4000        58
    18.4200        48
    18.4400        62
    18.4600        60
    18.4800        64
    18.5000        48
    18.5200        40
    18.5400        50
    18.5600        54
    18.5800        58
    18.6000        52
    18.6200        60
    18.6400        62
    18.6600        66
    18.6800        54
    18.7000        58
    18.7200        44
    18.7400        50
    18.7600        52
    18.7800        52
    18.8000        60
    18.8200        48
    18.8400        50
    18.8600        56
    18.8800        58
    18.9000        46
    18.9200        52
    18.9400        54
    18.9600        60
    18.9800        46
    19.0000        58
    19.0200        54
    19.0400        42
    19.0600        56
    19.0800        62
    19.1000        58
    19.1200        42
    19.1400        44
    19.1600        44
    19.1800        46
    19.2000        42
    19.2200        46
    19.2400        42
    19.2600        42
    19.2800        52
    19.3000        66
    19.3200        60
    19.3400        46
    19.3600        46
    19.3800        42
    19.4000        56
    19.4200        48
    19.4400        52
    19.4600        50
    19.4800        50
    19.5000        40
    19.5200        48
    19.5400        50
    19.5600        52
    19.5800        50
    19.6000        58
    19.6200        52
    19.6400        54
    19.6600        38
    19.6800        56
    19.7000        66
    19.7200        42
    19.7400        60
    19.7600        38
    19.7800        48
    19.8000        42
    19.8200        60
    19.8400        46
    19.8600        50
    19.8800        48
    19.9000        58
    19.9200        50
    19.9400        44
    19.9600        48
    19.9800        40
    20.0000        48
    20.0200        48
    20.0400        50
    20.0600        44
    20.0800        44
    20.1000        54
    20.1200        56
    20.1400        56
    20.1600        46
    20.1800        46
    20.2000        46
    20.2200        44
    20.2400        60
    20.2600        50
    20.2800        52
    20.3000        44
    20.3200        50
    20.3400        50
    20.3600        54
    20.3800        68
