/////////////////////////////////////////////////////////////////////////////////
/// Profile Data Ascii Dump (XRD)                                             ///
/////////////////////////////////////////////////////////////////////////////////

  Group     : Swayze
  Data      : GDS820
  File Name : GDS820.RAW

# Profile Datafile
          comment             = Halloysite 
          date & time         = 08-04-01 07:49:53 

# Measurement Condition
    X-ray tube
          target              = Cu 
          voltage             = 40.0 (kV)
          current             = 30.0 (mA)
    Slits
          divergence slit     = 2.00000 (deg) 
          scatter slit        = 2.00000 (deg) 
          receiving slit      = 0.15000 (mm)  
    Scanning
          drive axis          = Theta-2Theta 
          scan range          =    4.000 -   65.000 
          scan mode           = Continuous Scan 
          scan speed          =   2.0000 (deg/min) 
          sampling pitch      =   0.0200 (deg) 
          preset time         =   0.60 (sec) 

# Data      [ Total No. = 3051 ]
  <2Theta>   <   I   >
     4.0000       174
     4.0200       190
     4.0400       212
     4.0600       178
     4.0800       192
     4.1000       200
     4.1200       170
     4.1400       170
     4.1600       194
     4.1800       186
     4.2000       158
     4.2200       174
     4.2400       200
     4.2600       170
     4.2800       174
     4.3000       190
     4.3200       160
     4.3400       172
     4.3600       180
     4.3800       178
     4.4000       176
     4.4200       172
     4.4400       158
     4.4600       180
     4.4800       162
     4.5000       164
     4.5200       156
     4.5400       164
     4.5600       186
     4.5800       158
     4.6000       160
     4.6200       168
     4.6400       178
     4.6600       142
     4.6800       146
     4.7000       166
     4.7200       174
     4.7400       160
     4.7600       162
     4.7800       160
     4.8000       178
     4.8200       166
     4.8400       164
     4.8600       176
     4.8800       158
     4.9000       162
     4.9200       146
     4.9400       150
     4.9600       170
     4.9800       164
     5.0000       154
     5.0200       158
     5.0400       146
     5.0600       164
     5.0800       144
     5.1000       190
     5.1200       158
     5.1400       142
     5.1600       162
     5.1800       168
     5.2000       154
     5.2200       180
     5.2400       152
     5.2600       152
     5.2800       174
     5.3000       156
     5.3200       146
     5.3400       164
     5.3600       190
     5.3800       144
     5.4000       168
     5.4200       146
     5.4400       168
     5.4600       158
     5.4800       160
     5.5000       146
     5.5200       154
     5.5400       156
     5.5600       160
     5.5800       148
     5.6000       148
     5.6200       170
     5.6400       168
     5.6600       162
     5.6800       152
     5.7000       148
     5.7200       148
     5.7400       178
     5.7600       136
     5.7800       142
     5.8000       156
     5.8200       172
     5.8400       148
     5.8600       134
     5.8800       162
     5.9000       144
     5.9200       152
     5.9400       162
     5.9600       150
     5.9800       148
     6.0000       150
     6.0200       168
     6.0400       158
     6.0600       146
     6.0800       146
     6.1000       158
     6.1200       146
     6.1400       130
     6.1600       168
     6.1800       148
     6.2000       160
     6.2200       152
     6.2400       150
     6.2600       142
     6.2800       132
     6.3000       138
     6.3200       144
     6.3400       158
     6.3600       124
     6.3800       160
     6.4000       136
     6.4200       132
     6.4400       136
     6.4600       130
     6.4800       124
     6.5000       124
     6.5200       142
     6.5400       138
     6.5600       156
     6.5800       120
     6.6000       142
     6.6200       144
     6.6400       122
     6.6600       110
     6.6800       122
     6.7000       140
     6.7200       132
     6.7400       130
     6.7600       150
     6.7800       110
     6.8000       106
     6.8200       132
     6.8400       130
     6.8600       118
     6.8800       114
     6.9000       112
     6.9200       124
     6.9400       104
     6.9600       138
     6.9800       100
     7.0000       128
     7.0200       126
     7.0400       114
     7.0600       136
     7.0800       150
     7.1000       122
     7.1200       126
     7.1400       128
     7.1600       132
     7.1800       132
     7.2000       128
     7.2200       128
     7.2400       116
     7.2600       108
     7.2800       122
     7.3000       120
     7.3200       124
     7.3400       114
     7.3600       112
     7.3800       106
     7.4000       124
     7.4200       110
     7.4400       126
     7.4600       110
     7.4800       130
     7.5000       120
     7.5200       128
     7.5400       132
     7.5600       106
     7.5800        92
     7.6000       118
     7.6200       110
     7.6400       108
     7.6600       128
     7.6800       114
     7.7000        98
     7.7200       118
     7.7400       120
     7.7600       110
     7.7800       124
     7.8000       104
     7.8200       134
     7.8400       102
     7.8600       110
     7.8800        96
     7.9000       106
     7.9200       104
     7.9400       120
     7.9600       106
     7.9800       118
     8.0000       120
     8.0200       126
     8.0400       124
     8.0600       118
     8.0800       112
     8.1000       138
     8.1200       114
     8.1400       120
     8.1600       122
     8.1800       108
     8.2000       120
     8.2200       112
     8.2400       100
     8.2600       104
     8.2800       120
     8.3000       110
     8.3200       102
     8.3400       112
     8.3600       122
     8.3800       106
     8.4000       102
     8.4200        98
     8.4400       124
     8.4600       118
     8.4800       108
     8.5000       106
     8.5200       120
     8.5400       118
     8.5600       130
     8.5800        94
     8.6000       112
     8.6200       108
     8.6400       116
     8.6600       110
     8.6800       124
     8.7000       124
     8.7200       114
     8.7400       114
     8.7600       112
     8.7800       126
     8.8000       120
     8.8200       110
     8.8400       118
     8.8600       110
     8.8800        90
     8.9000       112
     8.9200       122
     8.9400       112
     8.9600       106
     8.9800       114
     9.0000       134
     9.0200       122
     9.0400       140
     9.0600       122
     9.0800       106
     9.1000       104
     9.1200       100
     9.1400        98
     9.1600       128
     9.1800       134
     9.2000       106
     9.2200       112
     9.2400       118
     9.2600       124
     9.2800       110
     9.3000       102
     9.3200        98
     9.3400       130
     9.3600       112
     9.3800        98
     9.4000       122
     9.4200       126
     9.4400       108
     9.4600       102
     9.4800       108
     9.5000       122
     9.5200       104
     9.5400       116
     9.5600       104
     9.5800       116
     9.6000       124
     9.6200       106
     9.6400       134
     9.6600       114
     9.6800       112
     9.7000        92
     9.7200       126
     9.7400       100
     9.7600       104
     9.7800       116
     9.8000       100
     9.8200       116
     9.8400       132
     9.8600       114
     9.8800       134
     9.9000       100
     9.9200       112
     9.9400       102
     9.9600       118
     9.9800       118
    10.0000       108
    10.0200       124
    10.0400       130
    10.0600       128
    10.0800       130
    10.1000       110
    10.1200       128
    10.1400       120
    10.1600       110
    10.1800       120
    10.2000        96
    10.2200        98
    10.2400       110
    10.2600       102
    10.2800       116
    10.3000       110
    10.3200       120
    10.3400       102
    10.3600        98
    10.3800       112
    10.4000        98
    10.4200        96
    10.4400       112
    10.4600       102
    10.4800       106
    10.5000       112
    10.5200        98
    10.5400       100
    10.5600       110
    10.5800       100
    10.6000       122
    10.6200       114
    10.6400       110
    10.6600       104
    10.6800       106
    10.7000       118
    10.7200       114
    10.7400       114
    10.7600       110
    10.7800       130
    10.8000        90
    10.8200       100
    10.8400       114
    10.8600       114
    10.8800        90
    10.9000       124
    10.9200       104
    10.9400       122
    10.9600        96
    10.9800       110
    11.0000       110
    11.0200       120
    11.0400       114
    11.0600       112
    11.0800       124
    11.1000       130
    11.1200       108
    11.1400       122
    11.1600       114
    11.1800       104
    11.2000       118
    11.2200       132
    11.2400       112
    11.2600       110
    11.2800       136
    11.3000       128
    11.3200       104
    11.3400       138
    11.3600       130
    11.3800        94
    11.4000       124
    11.4200       124
    11.4400       142
    11.4600       138
    11.4800       110
    11.5000       130
    11.5200       136
    11.5400       144
    11.5600       124
    11.5800       134
    11.6000       138
    11.6200       156
    11.6400       148
    11.6600       158
    11.6800       144
    11.7000       148
    11.7200       156
    11.7400       134
    11.7600       156
    11.7800       164
    11.8000       162
    11.8200       160
    11.8400       184
    11.8600       162
    11.8800       174
    11.9000       190
    11.9200       192
    11.9400       158
    11.9600       204
    11.9800       204
    12.0000       212
    12.0200       206
    12.0400       236
    12.0600       208
    12.0800       192
    12.1000       208
    12.1200       230
    12.1400       212
    12.1600       204
    12.1800       202
    12.2000       212
    12.2200       210
    12.2400       198
    12.2600       238
    12.2800       200
    12.3000       178
    12.3200       188
    12.3400       212
    12.3600       212
    12.3800       200
    12.4000       182
    12.4200       180
    12.4400       178
    12.4600       150
    12.4800       180
    12.5000       148
    12.5200       154
    12.5400       124
    12.5600       128
    12.5800       140
    12.6000       118
    12.6200       118
    12.6400       110
    12.6600       106
    12.6800       106
    12.7000        96
    12.7200        98
    12.7400       106
    12.7600       112
    12.7800        96
    12.8000       104
    12.8200        80
    12.8400       104
    12.8600        84
    12.8800        68
    12.9000        90
    12.9200        70
    12.9400        90
    12.9600        94
    12.9800       100
    13.0000        78
    13.0200        94
    13.0400        72
    13.0600        76
    13.0800        90
    13.1000        64
    13.1200        70
    13.1400        76
    13.1600        70
    13.1800        84
    13.2000        84
    13.2200        80
    13.2400        94
    13.2600        62
    13.2800        76
    13.3000        72
    13.3200        58
    13.3400        82
    13.3600        64
    13.3800        72
    13.4000        80
    13.4200        78
    13.4400        72
    13.4600        72
    13.4800        68
    13.5000        72
    13.5200        64
    13.5400        96
    13.5600        62
    13.5800        76
    13.6000        72
    13.6200        62
    13.6400        64
    13.6600        74
    13.6800        64
    13.7000        70
    13.7200        84
    13.7400        72
    13.7600        74
    13.7800        54
    13.8000        64
    13.8200        64
    13.8400        82
    13.8600        80
    13.8800        76
    13.9000        56
    13.9200        70
    13.9400        56
    13.9600        76
    13.9800        46
    14.0000        70
    14.0200        66
    14.0400        54
    14.0600        70
    14.0800        58
    14.1000        60
    14.1200        66
    14.1400        74
    14.1600        60
    14.1800        68
    14.2000        62
    14.2200        72
    14.2400        66
    14.2600        58
    14.2800        54
    14.3000        72
    14.3200        56
    14.3400        60
    14.3600        58
    14.3800        72
    14.4000        68
    14.4200        58
    14.4400        66
    14.4600        58
    14.4800        68
    14.5000        68
    14.5200        48
    14.5400        62
    14.5600        52
    14.5800        52
    14.6000        64
    14.6200        58
    14.6400        56
    14.6600        66
    14.6800        66
    14.7000        60
    14.7200        70
    14.7400        52
    14.7600        60
    14.7800        52
    14.8000        52
    14.8200        56
    14.8400        58
    14.8600        48
    14.8800        74
    14.9000        62
    14.9200        52
    14.9400        48
    14.9600        58
    14.9800        56
    15.0000        50
    15.0200        66
    15.0400        44
    15.0600        58
    15.0800        72
    15.1000        50
    15.1200        64
    15.1400        66
    15.1600        50
    15.1800        60
    15.2000        48
    15.2200        60
    15.2400        68
    15.2600        64
    15.2800        60
    15.3000        52
    15.3200        50
    15.3400        54
    15.3600        48
    15.3800        48
    15.4000        46
    15.4200        64
    15.4400        58
    15.4600        62
    15.4800        60
    15.5000        60
    15.5200        50
    15.5400        48
    15.5600        60
    15.5800        36
    15.6000        50
    15.6200        50
    15.6400        60
    15.6600        48
    15.6800        44
    15.7000        58
    15.7200        64
    15.7400        54
    15.7600        54
    15.7800        68
    15.8000        46
    15.8200        60
    15.8400        70
    15.8600        56
    15.8800        50
    15.9000        50
    15.9200        52
    15.9400        54
    15.9600        64
    15.9800        50
    16.0000        50
    16.0200        68
    16.0400        68
    16.0600        56
    16.0800        48
    16.1000        52
    16.1200        58
    16.1400        58
    16.1600        50
    16.1800        56
    16.2000        52
    16.2200        50
    16.2400        44
    16.2600        50
    16.2800        60
    16.3000        44
    16.3200        68
    16.3400        50
    16.3600        44
    16.3800        54
    16.4000        48
    16.4200        46
    16.4400        44
    16.4600        42
    16.4800        52
    16.5000        54
    16.5200        52
    16.5400        54
    16.5600        52
    16.5800        60
    16.6000        46
    16.6200        58
    16.6400        50
    16.6600        60
    16.6800        66
    16.7000        42
    16.7200        46
    16.7400        44
    16.7600        60
    16.7800        62
    16.8000        42
    16.8200        70
    16.8400        42
    16.8600        50
    16.8800        54
    16.9000        58
    16.9200        56
    16.9400        64
    16.9600        58
    16.9800        46
    17.0000        62
    17.0200        44
    17.0400        44
    17.0600        60
    17.0800        56
    17.1000        66
    17.1200        40
    17.1400        46
    17.1600        54
    17.1800        60
    17.2000        44
    17.2200        54
    17.2400        54
    17.2600        50
    17.2800        42
    17.3000        40
    17.3200        60
    17.3400        68
    17.3600        50
    17.3800        62
    17.4000        54
    17.4200        64
    17.4400        72
    17.4600        60
    17.4800        58
    17.5000        50
    17.5200        38
    17.5400        58
    17.5600        50
    17.5800        56
    17.6000        50
    17.6200        54
    17.6400        50
    17.6600        64
    17.6800        60
    17.7000        56
    17.7200        56
    17.7400        48
    17.7600        50
    17.7800        56
    17.8000        40
    17.8200        58
    17.8400        46
    17.8600        56
    17.8800        50
    17.9000        48
    17.9200        42
    17.9400        54
    17.9600        44
    17.9800        62
    18.0000        60
    18.0200        48
    18.0400        48
    18.0600        54
    18.0800        56
    18.1000        42
    18.1200        42
    18.1400        44
    18.1600        54
    18.1800        56
    18.2000        60
    18.2200        40
    18.2400        56
    18.2600        46
    18.2800        44
    18.3000        52
    18.3200        46
    18.3400        54
    18.3600        52
    18.3800        48
    18.4000        62
    18.4200        48
    18.4400        66
    18.4600        46
    18.4800        66
    18.5000        34
    18.5200        48
    18.5400        66
    18.5600        60
    18.5800        52
    18.6000        48
    18.6200        52
    18.6400        56
    18.6600        56
    18.6800        48
    18.7000        62
    18.7200        56
    18.7400        56
    18.7600        46
    18.7800        50
    18.8000        52
    18.8200        56
    18.8400        70
    18.8600        52
    18.8800        94
    18.9000        58
    18.9200        56
    18.9400        62
    18.9600        64
    18.9800        64
    19.0000        56
    19.0200        50
    19.0400        72
    19.0600        56
    19.0800        68
    19.1000        64
    19.1200        68
    19.1400        68
    19.1600        64
    19.1800        74
    19.2000        64
    19.2200        56
    19.2400        58
    19.2600        72
    19.2800        58
    19.3000        76
    19.3200        74
    19.3400        54
    19.3600        76
    19.3800        74
    19.4000        64
    19.4200        84
    19.4400        68
    19.4600        86
    19.4800        68
    19.5000        80
    19.5200        94
    19.5400        88
    19.5600       112
    19.5800        82
    19.6000        96
    19.6200       128
    19.6400       104
    19.6600       132
    19.6800       170
    19.7000       148
    19.7200       160
    19.7400       176
    19.7600       226
    19.7800       240
    19.8000       248
    19.8200       252
    19.8400       338
    19.8600       318
    19.8800       344
    19.9000       352
    19.9200       386
    19.9400       362
    19.9600       316
    19.9800       320
    20.0000       322
    20.0200       312
    20.0400       308
    20.0600       304
    20.0800       302
    20.1000       280
    20.1200       298
    20.1400       324
    20.1600       312
    20.1800       298
    20.2000       308
    20.2200       334
    20.2400       332
    20.2600       292
    20.2800       278
    20.3000       322
    20.3200       332
    20.3400       310
    20.3600       306
    20.3800       274
