/////////////////////////////////////////////////////////////////////////////////
/// Profile Data Ascii Dump (XRD)                                             ///
/////////////////////////////////////////////////////////////////////////////////

  Group     : Swayze
  Data      : LakeChandler LC-2
  File Name : LakeChandler LC-2.RAW

# Profile Datafile
          comment             = Alunite 
          date & time         = 08-02-28 09:13:14 

# Measurement Condition
    X-ray tube
          target              = Cu 
          voltage             = 40.0 (kV)
          current             = 30.0 (mA)
    Slits
          divergence slit     = 2.00000 (deg) 
          scatter slit        = 2.00000 (deg) 
          receiving slit      = 0.15000 (mm)  
    Scanning
          drive axis          = Theta-2Theta 
          scan range          =    4.000 -   65.000 
          scan mode           = Continuous Scan 
          scan speed          =   2.0000 (deg/min) 
          sampling pitch      =   0.0200 (deg) 
          preset time         =   0.60 (sec) 

# Data      [ Total No. = 3051 ]
  <2Theta>   <   I   >
     4.0000       222
     4.0200       254
     4.0400       214
     4.0600       210
     4.0800       198
     4.1000       200
     4.1200       216
     4.1400       176
     4.1600       196
     4.1800       218
     4.2000       196
     4.2200       232
     4.2400       212
     4.2600       188
     4.2800       186
     4.3000       212
     4.3200       206
     4.3400       206
     4.3600       180
     4.3800       190
     4.4000       196
     4.4200       184
     4.4400       188
     4.4600       178
     4.4800       188
     4.5000       192
     4.5200       162
     4.5400       176
     4.5600       186
     4.5800       186
     4.6000       174
     4.6200       180
     4.6400       180
     4.6600       184
     4.6800       192
     4.7000       188
     4.7200       168
     4.7400       162
     4.7600       152
     4.7800       164
     4.8000       150
     4.8200       198
     4.8400       188
     4.8600       170
     4.8800       182
     4.9000       174
     4.9200       166
     4.9400       186
     4.9600       178
     4.9800       174
     5.0000       188
     5.0200       184
     5.0400       176
     5.0600       166
     5.0800       168
     5.1000       166
     5.1200       172
     5.1400       164
     5.1600       180
     5.1800       146
     5.2000       196
     5.2200       160
     5.2400       160
     5.2600       168
     5.2800       190
     5.3000       172
     5.3200       176
     5.3400       186
     5.3600       180
     5.3800       166
     5.4000       162
     5.4200       184
     5.4400       170
     5.4600       176
     5.4800       144
     5.5000       190
     5.5200       172
     5.5400       184
     5.5600       156
     5.5800       156
     5.6000       154
     5.6200       174
     5.6400       202
     5.6600       184
     5.6800       164
     5.7000       174
     5.7200       178
     5.7400       168
     5.7600       168
     5.7800       142
     5.8000       168
     5.8200       172
     5.8400       164
     5.8600       168
     5.8800       184
     5.9000       174
     5.9200       146
     5.9400       164
     5.9600       156
     5.9800       160
     6.0000       168
     6.0200       162
     6.0400       178
     6.0600       156
     6.0800       166
     6.1000       178
     6.1200       148
     6.1400       138
     6.1600       160
     6.1800       172
     6.2000       160
     6.2200       142
     6.2400       138
     6.2600       176
     6.2800       156
     6.3000       150
     6.3200       152
     6.3400       132
     6.3600       164
     6.3800       162
     6.4000       166
     6.4200       148
     6.4400       146
     6.4600       154
     6.4800       150
     6.5000       178
     6.5200       150
     6.5400       134
     6.5600       132
     6.5800       136
     6.6000       156
     6.6200       142
     6.6400       156
     6.6600       126
     6.6800       150
     6.7000       140
     6.7200       146
     6.7400       120
     6.7600       182
     6.7800       142
     6.8000       148
     6.8200       130
     6.8400       118
     6.8600       140
     6.8800       140
     6.9000       148
     6.9200       150
     6.9400       148
     6.9600       140
     6.9800       136
     7.0000       124
     7.0200       128
     7.0400       124
     7.0600       124
     7.0800       132
     7.1000       122
     7.1200       150
     7.1400       144
     7.1600       122
     7.1800       138
     7.2000       108
     7.2200       120
     7.2400       140
     7.2600       128
     7.2800       100
     7.3000       128
     7.3200       124
     7.3400       126
     7.3600       136
     7.3800       114
     7.4000       138
     7.4200       142
     7.4400       124
     7.4600       124
     7.4800       126
     7.5000       106
     7.5200       124
     7.5400       112
     7.5600       122
     7.5800       104
     7.6000       138
     7.6200       138
     7.6400       140
     7.6600       122
     7.6800       124
     7.7000       126
     7.7200       118
     7.7400       142
     7.7600       118
     7.7800       136
     7.8000       108
     7.8200       150
     7.8400       120
     7.8600       106
     7.8800       106
     7.9000       124
     7.9200       120
     7.9400       120
     7.9600       124
     7.9800       116
     8.0000       130
     8.0200       142
     8.0400       138
     8.0600       124
     8.0800       126
     8.1000       118
     8.1200       114
     8.1400       128
     8.1600       110
     8.1800       140
     8.2000       110
     8.2200       104
     8.2400       134
     8.2600       114
     8.2800       136
     8.3000       122
     8.3200       124
     8.3400       130
     8.3600       126
     8.3800       106
     8.4000       142
     8.4200       120
     8.4400       146
     8.4600       132
     8.4800       122
     8.5000       144
     8.5200       134
     8.5400       118
     8.5600       134
     8.5800       116
     8.6000       136
     8.6200       120
     8.6400       120
     8.6600       130
     8.6800       116
     8.7000       142
     8.7200       114
     8.7400       134
     8.7600       124
     8.7800       144
     8.8000       146
     8.8200       132
     8.8400       118
     8.8600       140
     8.8800       116
     8.9000       124
     8.9200       146
     8.9400       122
     8.9600       106
     8.9800       118
     9.0000       100
     9.0200       114
     9.0400       130
     9.0600       114
     9.0800       110
     9.1000       130
     9.1200       110
     9.1400       120
     9.1600       128
     9.1800       118
     9.2000       112
     9.2200       112
     9.2400       102
     9.2600       122
     9.2800       116
     9.3000       116
     9.3200       108
     9.3400       126
     9.3600       126
     9.3800       138
     9.4000       128
     9.4200       148
     9.4400       136
     9.4600       132
     9.4800       104
     9.5000       116
     9.5200       126
     9.5400       126
     9.5600       110
     9.5800       110
     9.6000       122
     9.6200       124
     9.6400       108
     9.6600       136
     9.6800       108
     9.7000       112
     9.7200       124
     9.7400       126
     9.7600       114
     9.7800       124
     9.8000        98
     9.8200       116
     9.8400       140
     9.8600       106
     9.8800       114
     9.9000       122
     9.9200       116
     9.9400       122
     9.9600       120
     9.9800       124
    10.0000        98
    10.0200       100
    10.0400       118
    10.0600       108
    10.0800       110
    10.1000       112
    10.1200       116
    10.1400        92
    10.1600       122
    10.1800       122
    10.2000       112
    10.2200        98
    10.2400       106
    10.2600       132
    10.2800       108
    10.3000       102
    10.3200        90
    10.3400       104
    10.3600        90
    10.3800       142
    10.4000       120
    10.4200       114
    10.4400       114
    10.4600       112
    10.4800       102
    10.5000       120
    10.5200       110
    10.5400        98
    10.5600        92
    10.5800        98
    10.6000       112
    10.6200       114
    10.6400       104
    10.6600       108
    10.6800       106
    10.7000        88
    10.7200       108
    10.7400        96
    10.7600       100
    10.7800        80
    10.8000        94
    10.8200       106
    10.8400       110
    10.8600        84
    10.8800       124
    10.9000        96
    10.9200       104
    10.9400        98
    10.9600        96
    10.9800        88
    11.0000       102
    11.0200       112
    11.0400       120
    11.0600        90
    11.0800       110
    11.1000       112
    11.1200       100
    11.1400        90
    11.1600       120
    11.1800        82
    11.2000       102
    11.2200       106
    11.2400        96
    11.2600        96
    11.2800       118
    11.3000       102
    11.3200       110
    11.3400       108
    11.3600        96
    11.3800        90
    11.4000        92
    11.4200       104
    11.4400        90
    11.4600       102
    11.4800        88
    11.5000        92
    11.5200       108
    11.5400       106
    11.5600        96
    11.5800        84
    11.6000        86
    11.6200        78
    11.6400        94
    11.6600        92
    11.6800        98
    11.7000        94
    11.7200        88
    11.7400       104
    11.7600        86
    11.7800       100
    11.8000       112
    11.8200       116
    11.8400        94
    11.8600       104
    11.8800        86
    11.9000       108
    11.9200        96
    11.9400       108
    11.9600        98
    11.9800       102
    12.0000       104
    12.0200       116
    12.0400       106
    12.0600       104
    12.0800       124
    12.1000       102
    12.1200       100
    12.1400       106
    12.1600       110
    12.1800       114
    12.2000        96
    12.2200       126
    12.2400       112
    12.2600       126
    12.2800        88
    12.3000       110
    12.3200       104
    12.3400       122
    12.3600       104
    12.3800       106
    12.4000       108
    12.4200       114
    12.4400        78
    12.4600        98
    12.4800        86
    12.5000        92
    12.5200        84
    12.5400        84
    12.5600        86
    12.5800        72
    12.6000        76
    12.6200        88
    12.6400       102
    12.6600        90
    12.6800        84
    12.7000        82
    12.7200        78
    12.7400        88
    12.7600        78
    12.7800        90
    12.8000        80
    12.8200        78
    12.8400        76
    12.8600        74
    12.8800        94
    12.9000        74
    12.9200        76
    12.9400        60
    12.9600        90
    12.9800        76
    13.0000        82
    13.0200        86
    13.0400        84
    13.0600        78
    13.0800        78
    13.1000        80
    13.1200        90
    13.1400        82
    13.1600        80
    13.1800        90
    13.2000        78
    13.2200        78
    13.2400        86
    13.2600        88
    13.2800        88
    13.3000        78
    13.3200        90
    13.3400        80
    13.3600        80
    13.3800        80
    13.4000        70
    13.4200        86
    13.4400        66
    13.4600        96
    13.4800        90
    13.5000        78
    13.5200        94
    13.5400        78
    13.5600        72
    13.5800        64
    13.6000        76
    13.6200        86
    13.6400        58
    13.6600        82
    13.6800        74
    13.7000        70
    13.7200        88
    13.7400        82
    13.7600        80
    13.7800        78
    13.8000        80
    13.8200        76
    13.8400        80
    13.8600        72
    13.8800        64
    13.9000        78
    13.9200        86
    13.9400        72
    13.9600        68
    13.9800        70
    14.0000        72
    14.0200        68
    14.0400        80
    14.0600        72
    14.0800        72
    14.1000        74
    14.1200        66
    14.1400        78
    14.1600        84
    14.1800        94
    14.2000        76
    14.2200        72
    14.2400        76
    14.2600        88
    14.2800        66
    14.3000        70
    14.3200        80
    14.3400       100
    14.3600        70
    14.3800        80
    14.4000        62
    14.4200        72
    14.4400        70
    14.4600        64
    14.4800        76
    14.5000        66
    14.5200        82
    14.5400        60
    14.5600        72
    14.5800        70
    14.6000        84
    14.6200        60
    14.6400        74
    14.6600        78
    14.6800        70
    14.7000        98
    14.7200        76
    14.7400        82
    14.7600        84
    14.7800        84
    14.8000        80
    14.8200        84
    14.8400        76
    14.8600        72
    14.8800        92
    14.9000        86
    14.9200        78
    14.9400        92
    14.9600        74
    14.9800        76
    15.0000        92
    15.0200        86
    15.0400        94
    15.0600        84
    15.0800        92
    15.1000        94
    15.1200        98
    15.1400       102
    15.1600       118
    15.1800       114
    15.2000       128
    15.2200       144
    15.2400       134
    15.2600       134
    15.2800       160
    15.3000       184
    15.3200       222
    15.3400       250
    15.3600       230
    15.3800       276
    15.4000       288
    15.4200       272
    15.4400       262
    15.4600       200
    15.4800       174
    15.5000       122
    15.5200       110
    15.5400        88
    15.5600        94
    15.5800        94
    15.6000        82
    15.6200        72
    15.6400        92
    15.6600        78
    15.6800        76
    15.7000        88
    15.7200        82
    15.7400        70
    15.7600        68
    15.7800        74
    15.8000        68
    15.8200        82
    15.8400        76
    15.8600        72
    15.8800        64
    15.9000        80
    15.9200        54
    15.9400        60
    15.9600        66
    15.9800        72
    16.0000        68
    16.0200        76
    16.0400        62
    16.0600        72
    16.0800        68
    16.1000        60
    16.1200        80
    16.1400        66
    16.1600        60
    16.1800        82
    16.2000        58
    16.2200        72
    16.2400        64
    16.2600        74
    16.2800        68
    16.3000        76
    16.3200        64
    16.3400        68
    16.3600        68
    16.3800        56
    16.4000        62
    16.4200        60
    16.4400        62
    16.4600        74
    16.4800        84
    16.5000        72
    16.5200        62
    16.5400        70
    16.5600        82
    16.5800        74
    16.6000        80
    16.6200        64
    16.6400        72
    16.6600        66
    16.6800        74
    16.7000        74
    16.7200        76
    16.7400        70
    16.7600        58
    16.7800        72
    16.8000        74
    16.8200        62
    16.8400        62
    16.8600        74
    16.8800        58
    16.9000        72
    16.9200        70
    16.9400        62
    16.9600        70
    16.9800        64
    17.0000        64
    17.0200        58
    17.0400        64
    17.0600        78
    17.0800        86
    17.1000        66
    17.1200        80
    17.1400        66
    17.1600        82
    17.1800        72
    17.2000        82
    17.2200        80
    17.2400        88
    17.2600        76
    17.2800        88
    17.3000        74
    17.3200       100
    17.3400        84
    17.3600       104
    17.3800       108
    17.4000       120
    17.4200       120
    17.4400       124
    17.4600       130
    17.4800       158
    17.5000       142
    17.5200       172
    17.5400       178
    17.5600       194
    17.5800       200
    17.6000       232
    17.6200       236
    17.6400       282
    17.6600       298
    17.6800       356
    17.7000       436
    17.7200       514
    17.7400       642
    17.7600       698
    17.7800       754
    17.8000       712
    17.8200       686
    17.8400       550
    17.8600       504
    17.8800       368
    17.9000       260
    17.9200       192
    17.9400       160
    17.9600       104
    17.9800        92
    18.0000       108
    18.0200        86
    18.0400        80
    18.0600       100
    18.0800        84
    18.1000        86
    18.1200        86
    18.1400        68
    18.1600        66
    18.1800        78
    18.2000        72
    18.2200        88
    18.2400        84
    18.2600        72
    18.2800        68
    18.3000        76
    18.3200        88
    18.3400        70
    18.3600        70
    18.3800        70
    18.4000        86
    18.4200        68
    18.4400        76
    18.4600        60
    18.4800        80
    18.5000        64
    18.5200        62
    18.5400        76
    18.5600        56
    18.5800        78
    18.6000        84
    18.6200        74
    18.6400        72
    18.6600        86
    18.6800        72
    18.7000        66
    18.7200        70
    18.7400        82
    18.7600        70
    18.7800        86
    18.8000        80
    18.8200        68
    18.8400        80
    18.8600        68
    18.8800        88
    18.9000        66
    18.9200        68
    18.9400        66
    18.9600        82
    18.9800        70
    19.0000        70
    19.0200        70
    19.0400        90
    19.0600        72
    19.0800        80
    19.1000        62
    19.1200        72
    19.1400        78
    19.1600        90
    19.1800        98
    19.2000        62
    19.2200        62
    19.2400        84
    19.2600        72
    19.2800        86
    19.3000        80
    19.3200        70
    19.3400        74
    19.3600        70
    19.3800        70
    19.4000        72
    19.4200        80
    19.4400        68
    19.4600        76
    19.4800        86
    19.5000        88
    19.5200        92
    19.5400        78
    19.5600        70
    19.5800        88
    19.6000        86
    19.6200        88
    19.6400        90
    19.6600        96
    19.6800       100
    19.7000        96
    19.7200        92
    19.7400       110
    19.7600       112
    19.7800       112
    19.8000       100
    19.8200        98
    19.8400        92
    19.8600        96
    19.8800       100
    19.9000        90
    19.9200        96
    19.9400        98
    19.9600        90
    19.9800        92
    20.0000        82
    20.0200       104
    20.0400        84
    20.0600        98
    20.0800        96
    20.1000        78
    20.1200       118
    20.1400        84
    20.1600        92
    20.1800        86
    20.2000       112
    20.2200        90
    20.2400        88
    20.2600        90
    20.2800        90
    20.3000       120
    20.3200       110
    20.3400        88
    20.3600       102
