/////////////////////////////////////////////////////////////////////////////////
/// Profile Data Ascii Dump (XRD)                                             ///
/////////////////////////////////////////////////////////////////////////////////

  Group     : Swayze
  Data      : LC-5
  File Name : LC-5.RAW

# Profile Datafile
          comment             = Alunite-250C-30hrs 
          date & time         = 08-04-01 07:18:54 

# Measurement Condition
    X-ray tube
          target              = Cu 
          voltage             = 40.0 (kV)
          current             = 30.0 (mA)
    Slits
          divergence slit     = 2.00000 (deg) 
          scatter slit        = 2.00000 (deg) 
          receiving slit      = 0.15000 (mm)  
    Scanning
          drive axis          = Theta-2Theta 
          scan range          =    4.000 -   65.000 
          scan mode           = Continuous Scan 
          scan speed          =   2.0000 (deg/min) 
          sampling pitch      =   0.0200 (deg) 
          preset time         =   0.60 (sec) 

# Data      [ Total No. = 3051 ]
  <2Theta>   <   I   >
     4.0000       208
     4.0200       198
     4.0400       186
     4.0600       212
     4.0800       178
     4.1000       198
     4.1200       198
     4.1400       178
     4.1600       204
     4.1800       218
     4.2000       188
     4.2200       198
     4.2400       202
     4.2600       186
     4.2800       188
     4.3000       190
     4.3200       178
     4.3400       202
     4.3600       176
     4.3800       184
     4.4000       186
     4.4200       172
     4.4400       200
     4.4600       160
     4.4800       168
     4.5000       158
     4.5200       172
     4.5400       166
     4.5600       182
     4.5800       212
     4.6000       176
     4.6200       182
     4.6400       162
     4.6600       152
     4.6800       174
     4.7000       166
     4.7200       184
     4.7400       176
     4.7600       172
     4.7800       166
     4.8000       170
     4.8200       158
     4.8400       164
     4.8600       150
     4.8800       188
     4.9000       154
     4.9200       188
     4.9400       180
     4.9600       176
     4.9800       170
     5.0000       158
     5.0200       164
     5.0400       168
     5.0600       164
     5.0800       172
     5.1000       150
     5.1200       188
     5.1400       162
     5.1600       136
     5.1800       170
     5.2000       180
     5.2200       178
     5.2400       188
     5.2600       166
     5.2800       150
     5.3000       176
     5.3200       168
     5.3400       168
     5.3600       174
     5.3800       178
     5.4000       186
     5.4200       172
     5.4400       154
     5.4600       198
     5.4800       130
     5.5000       180
     5.5200       176
     5.5400       188
     5.5600       178
     5.5800       186
     5.6000       154
     5.6200       182
     5.6400       178
     5.6600       170
     5.6800       174
     5.7000       150
     5.7200       150
     5.7400       186
     5.7600       172
     5.7800       172
     5.8000       148
     5.8200       156
     5.8400       182
     5.8600       162
     5.8800       176
     5.9000       176
     5.9200       176
     5.9400       164
     5.9600       144
     5.9800       174
     6.0000       158
     6.0200       156
     6.0400       146
     6.0600       166
     6.0800       160
     6.1000       156
     6.1200       154
     6.1400       136
     6.1600       138
     6.1800       170
     6.2000       150
     6.2200       116
     6.2400       184
     6.2600       156
     6.2800       148
     6.3000       156
     6.3200       150
     6.3400       130
     6.3600       150
     6.3800       144
     6.4000       130
     6.4200       172
     6.4400       118
     6.4600       138
     6.4800       152
     6.5000       144
     6.5200       130
     6.5400       128
     6.5600       114
     6.5800       146
     6.6000       130
     6.6200       138
     6.6400       160
     6.6600       148
     6.6800       120
     6.7000       150
     6.7200       120
     6.7400       134
     6.7600       144
     6.7800       136
     6.8000       130
     6.8200       164
     6.8400       136
     6.8600       126
     6.8800       124
     6.9000       122
     6.9200       138
     6.9400       118
     6.9600       136
     6.9800       134
     7.0000       122
     7.0200       152
     7.0400       124
     7.0600       138
     7.0800        98
     7.1000       122
     7.1200       122
     7.1400       134
     7.1600       116
     7.1800       120
     7.2000       102
     7.2200       128
     7.2400       106
     7.2600       128
     7.2800       128
     7.3000       136
     7.3200       128
     7.3400       124
     7.3600       130
     7.3800        98
     7.4000       122
     7.4200       140
     7.4400       108
     7.4600       106
     7.4800       114
     7.5000       112
     7.5200       134
     7.5400       132
     7.5600       120
     7.5800       136
     7.6000       116
     7.6200       136
     7.6400       130
     7.6600       138
     7.6800       122
     7.7000       120
     7.7200       134
     7.7400       116
     7.7600       104
     7.7800       120
     7.8000       108
     7.8200        98
     7.8400       116
     7.8600       102
     7.8800       114
     7.9000       102
     7.9200       120
     7.9400       130
     7.9600       116
     7.9800        94
     8.0000       122
     8.0200        88
     8.0400       122
     8.0600       120
     8.0800       116
     8.1000        96
     8.1200       136
     8.1400        94
     8.1600       112
     8.1800       122
     8.2000       102
     8.2200       122
     8.2400       114
     8.2600       134
     8.2800       108
     8.3000       106
     8.3200       132
     8.3400       104
     8.3600       130
     8.3800       116
     8.4000       126
     8.4200       126
     8.4400       114
     8.4600       118
     8.4800       106
     8.5000       126
     8.5200       120
     8.5400        98
     8.5600       128
     8.5800       136
     8.6000       126
     8.6200       120
     8.6400       126
     8.6600       116
     8.6800       116
     8.7000       118
     8.7200       118
     8.7400       122
     8.7600       126
     8.7800       120
     8.8000       128
     8.8200       130
     8.8400       114
     8.8600       128
     8.8800       124
     8.9000       104
     8.9200       112
     8.9400       102
     8.9600       118
     8.9800       104
     9.0000       130
     9.0200       120
     9.0400       128
     9.0600       136
     9.0800        98
     9.1000       100
     9.1200       110
     9.1400       118
     9.1600       102
     9.1800       110
     9.2000       128
     9.2200       116
     9.2400        98
     9.2600       114
     9.2800       126
     9.3000       134
     9.3200       102
     9.3400       128
     9.3600       112
     9.3800       102
     9.4000       108
     9.4200       114
     9.4400       118
     9.4600       106
     9.4800       128
     9.5000       118
     9.5200       126
     9.5400       108
     9.5600        98
     9.5800        86
     9.6000       108
     9.6200       116
     9.6400       108
     9.6600       104
     9.6800       124
     9.7000       102
     9.7200       112
     9.7400        92
     9.7600       104
     9.7800       104
     9.8000       120
     9.8200       104
     9.8400       122
     9.8600       108
     9.8800       126
     9.9000       114
     9.9200       112
     9.9400       112
     9.9600       102
     9.9800       122
    10.0000        96
    10.0200       102
    10.0400       100
    10.0600       108
    10.0800       108
    10.1000       102
    10.1200        90
    10.1400       112
    10.1600       112
    10.1800       100
    10.2000       124
    10.2200       110
    10.2400       114
    10.2600       118
    10.2800        96
    10.3000       108
    10.3200        94
    10.3400       118
    10.3600       114
    10.3800       102
    10.4000       102
    10.4200        96
    10.4400       102
    10.4600       102
    10.4800       112
    10.5000       100
    10.5200       102
    10.5400       122
    10.5600        98
    10.5800        96
    10.6000       112
    10.6200        96
    10.6400       100
    10.6600        92
    10.6800        86
    10.7000        84
    10.7200        98
    10.7400        86
    10.7600       102
    10.7800       104
    10.8000        86
    10.8200        94
    10.8400        88
    10.8600       104
    10.8800        88
    10.9000        76
    10.9200        96
    10.9400        90
    10.9600        82
    10.9800        90
    11.0000       104
    11.0200        96
    11.0400        98
    11.0600        96
    11.0800        94
    11.1000        74
    11.1200        98
    11.1400        96
    11.1600        90
    11.1800        90
    11.2000       106
    11.2200        90
    11.2400        92
    11.2600        98
    11.2800        80
    11.3000        74
    11.3200       118
    11.3400       112
    11.3600        94
    11.3800        86
    11.4000       104
    11.4200        92
    11.4400        86
    11.4600        82
    11.4800        80
    11.5000        76
    11.5200       106
    11.5400        84
    11.5600        92
    11.5800        98
    11.6000        68
    11.6200        84
    11.6400       104
    11.6600        76
    11.6800        90
    11.7000        94
    11.7200        80
    11.7400        76
    11.7600        98
    11.7800        98
    11.8000        84
    11.8200        76
    11.8400        82
    11.8600        76
    11.8800        74
    11.9000       100
    11.9200        78
    11.9400        98
    11.9600        58
    11.9800        84
    12.0000        92
    12.0200        92
    12.0400       104
    12.0600        74
    12.0800        84
    12.1000        84
    12.1200        84
    12.1400        90
    12.1600       102
    12.1800        86
    12.2000        84
    12.2200        74
    12.2400        66
    12.2600        88
    12.2800        84
    12.3000        92
    12.3200        86
    12.3400       102
    12.3600        82
    12.3800       102
    12.4000       104
    12.4200        86
    12.4400        76
    12.4600        78
    12.4800        76
    12.5000        78
    12.5200        86
    12.5400        80
    12.5600        78
    12.5800        60
    12.6000        92
    12.6200        82
    12.6400        84
    12.6600        84
    12.6800        96
    12.7000       100
    12.7200        88
    12.7400        78
    12.7600        78
    12.7800        80
    12.8000        86
    12.8200        82
    12.8400        86
    12.8600        76
    12.8800        64
    12.9000        68
    12.9200        62
    12.9400        92
    12.9600        94
    12.9800        66
    13.0000        86
    13.0200        76
    13.0400        74
    13.0600        82
    13.0800        62
    13.1000        76
    13.1200        72
    13.1400        74
    13.1600        78
    13.1800        76
    13.2000        66
    13.2200        72
    13.2400        74
    13.2600        82
    13.2800        64
    13.3000        68
    13.3200        82
    13.3400        84
    13.3600        78
    13.3800        74
    13.4000        82
    13.4200        78
    13.4400        74
    13.4600        64
    13.4800        68
    13.5000        68
    13.5200        74
    13.5400        80
    13.5600        82
    13.5800        78
    13.6000        82
    13.6200        76
    13.6400        68
    13.6600        56
    13.6800        66
    13.7000        78
    13.7200        74
    13.7400        82
    13.7600        78
    13.7800        86
    13.8000        74
    13.8200        66
    13.8400        76
    13.8600        66
    13.8800        58
    13.9000        68
    13.9200        80
    13.9400        74
    13.9600        56
    13.9800        64
    14.0000        66
    14.0200        48
    14.0400        80
    14.0600        76
    14.0800        74
    14.1000        88
    14.1200        70
    14.1400        68
    14.1600        84
    14.1800        64
    14.2000        72
    14.2200        78
    14.2400        78
    14.2600        66
    14.2800        68
    14.3000        64
    14.3200        66
    14.3400        66
    14.3600        84
    14.3800        64
    14.4000        62
    14.4200        80
    14.4400        66
    14.4600        68
    14.4800        72
    14.5000        80
    14.5200        68
    14.5400       100
    14.5600        72
    14.5800       108
    14.6000        78
    14.6200        94
    14.6400        94
    14.6600       104
    14.6800       122
    14.7000        94
    14.7200        94
    14.7400        86
    14.7600        74
    14.7800        92
    14.8000       100
    14.8200        78
    14.8400        92
    14.8600        72
    14.8800        90
    14.9000        64
    14.9200        96
    14.9400        86
    14.9600        80
    14.9800        82
    15.0000        72
    15.0200        62
    15.0400        86
    15.0600        76
    15.0800        68
    15.1000        74
    15.1200        86
    15.1400        92
    15.1600        74
    15.1800        98
    15.2000        88
    15.2200        98
    15.2400       106
    15.2600       102
    15.2800       108
    15.3000       106
    15.3200       112
    15.3400       100
    15.3600       136
    15.3800       150
    15.4000       142
    15.4200       162
    15.4400       196
    15.4600       196
    15.4800       200
    15.5000       176
    15.5200       158
    15.5400       118
    15.5600       136
    15.5800       102
    15.6000        78
    15.6200        62
    15.6400        74
    15.6600        74
    15.6800        74
    15.7000        70
    15.7200        68
    15.7400        78
    15.7600        58
    15.7800        62
    15.8000        70
    15.8200        54
    15.8400        78
    15.8600        82
    15.8800        58
    15.9000        50
    15.9200        68
    15.9400        52
    15.9600        60
    15.9800        82
    16.0000        60
    16.0200        64
    16.0400        60
    16.0600        66
    16.0800        60
    16.1000        64
    16.1200        58
    16.1400        54
    16.1600        56
    16.1800        52
    16.2000        62
    16.2200        78
    16.2400        68
    16.2600        60
    16.2800        48
    16.3000        60
    16.3200        62
    16.3400        64
    16.3600        66
    16.3800        64
    16.4000        64
    16.4200        50
    16.4400        46
    16.4600        50
    16.4800        64
    16.5000        52
    16.5200        68
    16.5400        62
    16.5600        62
    16.5800        72
    16.6000        74
    16.6200        64
    16.6400        60
    16.6600        68
    16.6800        58
    16.7000        46
    16.7200        64
    16.7400        66
    16.7600        64
    16.7800        54
    16.8000        60
    16.8200        54
    16.8400        70
    16.8600        44
    16.8800        56
    16.9000        62
    16.9200        60
    16.9400        68
    16.9600        72
    16.9800        76
    17.0000        60
    17.0200        54
    17.0400        80
    17.0600        64
    17.0800        60
    17.1000        88
    17.1200        64
    17.1400        48
    17.1600        56
    17.1800        58
    17.2000        70
    17.2200        68
    17.2400        64
    17.2600        58
    17.2800        68
    17.3000        78
    17.3200        72
    17.3400        60
    17.3600        70
    17.3800        88
    17.4000        80
    17.4200        58
    17.4400        74
    17.4600        90
    17.4800        92
    17.5000       110
    17.5200       100
    17.5400       110
    17.5600        86
    17.5800       102
    17.6000       150
    17.6200       126
    17.6400       158
    17.6600       140
    17.6800       166
    17.7000       162
    17.7200       192
    17.7400       226
    17.7600       262
    17.7800       296
    17.8000       418
    17.8200       460
    17.8400       500
    17.8600       518
    17.8800       488
    17.9000       426
    17.9200       412
    17.9400       278
    17.9600       208
    17.9800       164
    18.0000       148
    18.0200       106
    18.0400        96
    18.0600        96
    18.0800        82
    18.1000        84
    18.1200        72
    18.1400        88
    18.1600        72
    18.1800        74
    18.2000        72
    18.2200        72
    18.2400        70
    18.2600        70
    18.2800        68
    18.3000        62
    18.3200        54
    18.3400        64
    18.3600        64
    18.3800        62
    18.4000        62
    18.4200        60
    18.4400        74
    18.4600        64
    18.4800        72
    18.5000        68
    18.5200        76
    18.5400        58
    18.5600        58
    18.5800        72
    18.6000        62
    18.6200        54
    18.6400        54
    18.6600        62
    18.6800        70
    18.7000        60
    18.7200        66
    18.7400        66
    18.7600        56
    18.7800        52
    18.8000        78
    18.8200        46
    18.8400        60
    18.8600        42
    18.8800        64
    18.9000        78
    18.9200        58
    18.9400        68
    18.9600        58
    18.9800        62
    19.0000        52
    19.0200        54
    19.0400        56
    19.0600        58
    19.0800        68
    19.1000        52
    19.1200        72
    19.1400        60
    19.1600        54
    19.1800        70
    19.2000        60
    19.2200        62
    19.2400        74
    19.2600        60
    19.2800        60
    19.3000        72
    19.3200        76
    19.3400        62
    19.3600        58
    19.3800        56
    19.4000        48
    19.4200        62
    19.4400        80
    19.4600        68
    19.4800        68
    19.5000        66
    19.5200        68
    19.5400        82
    19.5600        66
    19.5800        58
    19.6000        64
    19.6200        52
    19.6400        60
    19.6600        64
    19.6800        58
    19.7000        70
    19.7200        74
    19.7400        72
    19.7600        74
    19.7800        78
    19.8000        64
    19.8200        80
    19.8400        72
    19.8600        64
    19.8800        62
    19.9000        64
    19.9200        88
    19.9400        66
    19.9600        78
    19.9800        74
    20.0000        72
    20.0200        66
    20.0400        84
    20.0600        82
    20.0800        76
    20.1000        54
    20.1200        80
    20.1400        70
    20.1600        54
    20.1800        64
    20.2000        76
    20.2200        76
    20.2400        78
    20.2600        76
    20.2800        70
    20.3000        74
    20.3200        94
    20.3400        74
    20.3600        70
    20.3800        64
