/////////////////////////////////////////////////////////////////////////////////
/// Profile Data Ascii Dump (XRD)                                             ///
/////////////////////////////////////////////////////////////////////////////////

  Group     : Swayze
  Data      : No 197 1B
  File Name : No 197 1B.RAW

# Profile Datafile
          comment             = Chlorite 
          date & time         = 08-03-13 06:21:52 

# Measurement Condition
    X-ray tube
          target              = Cu 
          voltage             = 40.0 (kV)
          current             = 30.0 (mA)
    Slits
          divergence slit     = 2.00000 (deg) 
          scatter slit        = 2.00000 (deg) 
          receiving slit      = 0.15000 (mm)  
    Scanning
          drive axis          = Theta-2Theta 
          scan range          =    4.000 -   65.000 
          scan mode           = Continuous Scan 
          scan speed          =   2.0000 (deg/min) 
          sampling pitch      =   0.0200 (deg) 
          preset time         =   0.60 (sec) 

# Data      [ Total No. = 3051 ]
  <2Theta>   <   I   >
     4.0000       180
     4.0200       198
     4.0400       190
     4.0600       196
     4.0800       194
     4.1000       194
     4.1200       182
     4.1400       210
     4.1600       208
     4.1800       218
     4.2000       174
     4.2200       194
     4.2400       170
     4.2600       202
     4.2800       202
     4.3000       188
     4.3200       158
     4.3400       208
     4.3600       194
     4.3800       194
     4.4000       186
     4.4200       190
     4.4400       176
     4.4600       184
     4.4800       204
     4.5000       182
     4.5200       186
     4.5400       188
     4.5600       172
     4.5800       168
     4.6000       172
     4.6200       200
     4.6400       172
     4.6600       184
     4.6800       168
     4.7000       170
     4.7200       182
     4.7400       196
     4.7600       192
     4.7800       192
     4.8000       160
     4.8200       164
     4.8400       192
     4.8600       172
     4.8800       158
     4.9000       158
     4.9200       158
     4.9400       184
     4.9600       188
     4.9800       152
     5.0000       166
     5.0200       176
     5.0400       168
     5.0600       188
     5.0800       182
     5.1000       182
     5.1200       196
     5.1400       184
     5.1600       178
     5.1800       234
     5.2000       172
     5.2200       206
     5.2400       186
     5.2600       188
     5.2800       202
     5.3000       186
     5.3200       194
     5.3400       200
     5.3600       210
     5.3800       186
     5.4000       210
     5.4200       190
     5.4400       192
     5.4600       212
     5.4800       224
     5.5000       208
     5.5200       210
     5.5400       212
     5.5600       202
     5.5800       210
     5.6000       236
     5.6200       230
     5.6400       228
     5.6600       202
     5.6800       232
     5.7000       238
     5.7200       258
     5.7400       254
     5.7600       232
     5.7800       256
     5.8000       292
     5.8200       250
     5.8400       244
     5.8600       276
     5.8800       276
     5.9000       312
     5.9200       312
     5.9400       338
     5.9600       320
     5.9800       352
     6.0000       388
     6.0200       382
     6.0400       466
     6.0600       476
     6.0800       516
     6.1000       610
     6.1200       528
     6.1400       524
     6.1600       486
     6.1800       366
     6.2000       286
     6.2200       244
     6.2400       202
     6.2600       198
     6.2800       186
     6.3000       198
     6.3200       196
     6.3400       166
     6.3600       176
     6.3800       168
     6.4000       174
     6.4200       160
     6.4400       166
     6.4600       152
     6.4800       166
     6.5000       122
     6.5200       158
     6.5400       170
     6.5600       142
     6.5800       134
     6.6000       166
     6.6200       148
     6.6400       142
     6.6600       154
     6.6800       162
     6.7000       140
     6.7200       138
     6.7400       142
     6.7600       130
     6.7800       140
     6.8000       136
     6.8200       144
     6.8400       140
     6.8600       136
     6.8800       132
     6.9000       144
     6.9200       132
     6.9400       138
     6.9600       104
     6.9800       126
     7.0000       122
     7.0200       124
     7.0400       134
     7.0600       132
     7.0800       150
     7.1000       138
     7.1200       130
     7.1400       132
     7.1600       122
     7.1800       130
     7.2000       128
     7.2200       142
     7.2400       124
     7.2600       140
     7.2800       162
     7.3000       124
     7.3200       134
     7.3400       132
     7.3600       120
     7.3800       142
     7.4000       126
     7.4200       126
     7.4400       120
     7.4600       152
     7.4800       122
     7.5000       118
     7.5200       140
     7.5400       122
     7.5600       102
     7.5800       128
     7.6000       124
     7.6200       120
     7.6400       114
     7.6600       122
     7.6800       116
     7.7000       110
     7.7200       116
     7.7400       100
     7.7600       124
     7.7800       136
     7.8000       120
     7.8200       120
     7.8400       130
     7.8600       104
     7.8800       120
     7.9000       106
     7.9200       112
     7.9400       110
     7.9600       132
     7.9800       124
     8.0000       108
     8.0200       136
     8.0400       140
     8.0600       134
     8.0800       106
     8.1000        98
     8.1200       118
     8.1400       120
     8.1600       142
     8.1800       124
     8.2000       144
     8.2200       126
     8.2400       114
     8.2600       132
     8.2800       114
     8.3000       128
     8.3200       106
     8.3400       104
     8.3600       122
     8.3800       118
     8.4000       118
     8.4200       122
     8.4400       138
     8.4600       120
     8.4800       134
     8.5000       120
     8.5200       126
     8.5400       124
     8.5600       124
     8.5800       132
     8.6000       144
     8.6200       124
     8.6400       132
     8.6600       116
     8.6800       132
     8.7000       128
     8.7200       142
     8.7400       130
     8.7600       132
     8.7800       108
     8.8000       110
     8.8200       150
     8.8400       128
     8.8600       124
     8.8800       120
     8.9000       128
     8.9200       114
     8.9400       130
     8.9600       122
     8.9800       138
     9.0000       130
     9.0200       138
     9.0400       120
     9.0600       114
     9.0800       134
     9.1000       118
     9.1200       118
     9.1400       140
     9.1600       118
     9.1800       114
     9.2000       110
     9.2200       122
     9.2400       108
     9.2600       126
     9.2800       116
     9.3000       146
     9.3200       118
     9.3400       124
     9.3600       136
     9.3800       126
     9.4000       124
     9.4200       132
     9.4400       122
     9.4600       114
     9.4800       124
     9.5000       140
     9.5200       120
     9.5400       150
     9.5600       114
     9.5800       120
     9.6000       156
     9.6200       162
     9.6400       178
     9.6600       196
     9.6800       180
     9.7000       184
     9.7200       156
     9.7400       158
     9.7600       208
     9.7800       224
     9.8000       214
     9.8200       186
     9.8400       190
     9.8600       152
     9.8800       128
     9.9000       148
     9.9200       126
     9.9400       124
     9.9600       132
     9.9800       114
    10.0000       134
    10.0200       108
    10.0400       118
    10.0600       108
    10.0800       132
    10.1000       118
    10.1200       136
    10.1400       118
    10.1600       104
    10.1800       112
    10.2000       126
    10.2200       122
    10.2400       136
    10.2600       106
    10.2800       116
    10.3000       102
    10.3200       116
    10.3400       108
    10.3600       120
    10.3800       116
    10.4000       126
    10.4200       100
    10.4400        90
    10.4600       108
    10.4800        94
    10.5000       114
    10.5200        98
    10.5400       114
    10.5600       112
    10.5800       110
    10.6000       112
    10.6200        90
    10.6400        92
    10.6600        94
    10.6800       112
    10.7000       104
    10.7200       108
    10.7400       108
    10.7600       112
    10.7800       102
    10.8000       112
    10.8200       144
    10.8400       102
    10.8600       114
    10.8800       116
    10.9000        82
    10.9200        88
    10.9400       104
    10.9600       106
    10.9800        96
    11.0000       110
    11.0200       108
    11.0400       100
    11.0600        98
    11.0800        94
    11.1000        88
    11.1200       100
    11.1400       100
    11.1600        98
    11.1800       112
    11.2000       108
    11.2200       110
    11.2400       112
    11.2600        96
    11.2800       124
    11.3000       128
    11.3200       120
    11.3400       106
    11.3600        90
    11.3800       124
    11.4000        92
    11.4200       104
    11.4400       124
    11.4600       116
    11.4800       106
    11.5000       116
    11.5200       126
    11.5400       102
    11.5600       106
    11.5800       122
    11.6000        98
    11.6200       118
    11.6400       124
    11.6600       114
    11.6800       126
    11.7000       138
    11.7200       124
    11.7400       130
    11.7600       162
    11.7800       120
    11.8000       136
    11.8200       144
    11.8400       162
    11.8600       138
    11.8800       148
    11.9000       170
    11.9200       162
    11.9400       186
    11.9600       190
    11.9800       182
    12.0000       218
    12.0200       222
    12.0400       268
    12.0600       244
    12.0800       254
    12.1000       286
    12.1200       316
    12.1400       336
    12.1600       384
    12.1800       442
    12.2000       444
    12.2200       482
    12.2400       604
    12.2600       668
    12.2800       738
    12.3000       824
    12.3200       846
    12.3400       880
    12.3600       860
    12.3800       786
    12.4000       602
    12.4200       468
    12.4400       384
    12.4600       296
    12.4800       228
    12.5000       174
    12.5200       154
    12.5400       160
    12.5600       142
    12.5800       140
    12.6000       108
    12.6200       140
    12.6400       126
    12.6600       118
    12.6800       102
    12.7000        90
    12.7200       118
    12.7400        96
    12.7600       106
    12.7800        92
    12.8000       102
    12.8200       102
    12.8400        92
    12.8600        80
    12.8800        96
    12.9000        98
    12.9200        82
    12.9400        84
    12.9600        82
    12.9800       106
    13.0000       100
    13.0200        94
    13.0400        70
    13.0600        80
    13.0800        72
    13.1000        86
    13.1200        78
    13.1400        64
    13.1600        78
    13.1800        88
    13.2000        80
    13.2200        86
    13.2400        62
    13.2600        76
    13.2800        84
    13.3000        66
    13.3200        82
    13.3400        98
    13.3600        70
    13.3800        68
    13.4000        80
    13.4200        78
    13.4400        70
    13.4600        94
    13.4800       100
    13.5000        84
    13.5200        76
    13.5400        86
    13.5600        96
    13.5800        94
    13.6000        84
    13.6200        70
    13.6400        78
    13.6600        94
    13.6800        80
    13.7000        78
    13.7200        78
    13.7400        76
    13.7600        62
    13.7800        82
    13.8000        88
    13.8200        78
    13.8400        80
    13.8600        60
    13.8800        78
    13.9000        82
    13.9200        68
    13.9400        80
    13.9600        66
    13.9800        72
    14.0000        74
    14.0200        78
    14.0400        70
    14.0600        70
    14.0800        80
    14.1000        76
    14.1200        78
    14.1400        78
    14.1600        68
    14.1800        76
    14.2000        64
    14.2200        76
    14.2400        88
    14.2600        68
    14.2800        70
    14.3000        82
    14.3200        70
    14.3400        70
    14.3600        68
    14.3800        76
    14.4000        80
    14.4200        82
    14.4400        74
    14.4600        66
    14.4800        76
    14.5000        76
    14.5200        66
    14.5400        86
    14.5600        78
    14.5800        76
    14.6000        80
    14.6200        70
    14.6400        66
    14.6600        62
    14.6800        84
    14.7000        56
    14.7200        86
    14.7400        72
    14.7600        60
    14.7800        80
    14.8000        48
    14.8200        52
    14.8400        60
    14.8600        72
    14.8800        80
    14.9000        90
    14.9200        48
    14.9400        64
    14.9600        72
    14.9800        68
    15.0000        78
    15.0200        62
    15.0400        64
    15.0600        70
    15.0800        74
    15.1000        96
    15.1200        84
    15.1400        64
    15.1600        50
    15.1800        76
    15.2000        66
    15.2200        62
    15.2400        80
    15.2600        68
    15.2800        76
    15.3000        70
    15.3200        72
    15.3400        66
    15.3600        62
    15.3800        60
    15.4000        64
    15.4200        70
    15.4400        68
    15.4600        88
    15.4800        58
    15.5000        62
    15.5200        74
    15.5400        70
    15.5600        64
    15.5800        76
    15.6000        76
    15.6200        70
    15.6400        62
    15.6600        80
    15.6800        58
    15.7000        70
    15.7200        78
    15.7400        64
    15.7600        82
    15.7800        64
    15.8000        62
    15.8200        76
    15.8400        50
    15.8600        58
    15.8800        66
    15.9000        66
    15.9200        72
    15.9400        58
    15.9600        68
    15.9800        76
    16.0000        66
    16.0200        72
    16.0400        56
    16.0600        66
    16.0800        80
    16.1000        86
    16.1200        56
    16.1400        80
    16.1600        82
    16.1800        68
    16.2000        66
    16.2200        62
    16.2400        66
    16.2600        52
    16.2800        56
    16.3000        66
    16.3200        72
    16.3400        80
    16.3600        66
    16.3800        76
    16.4000        56
    16.4200        68
    16.4400        70
    16.4600        84
    16.4800        82
    16.5000        68
    16.5200        68
    16.5400        84
    16.5600        76
    16.5800        64
    16.6000        64
    16.6200        68
    16.6400        64
    16.6600        74
    16.6800        80
    16.7000        66
    16.7200        68
    16.7400        66
    16.7600        60
    16.7800        54
    16.8000        70
    16.8200        70
    16.8400        82
    16.8600        66
    16.8800        78
    16.9000        80
    16.9200        46
    16.9400        62
    16.9600        68
    16.9800        74
    17.0000        58
    17.0200        52
    17.0400        64
    17.0600        72
    17.0800        62
    17.1000        74
    17.1200        68
    17.1400        62
    17.1600        56
    17.1800        60
    17.2000        66
    17.2200        66
    17.2400        86
    17.2600        56
    17.2800        58
    17.3000        74
    17.3200        74
    17.3400        68
    17.3600        76
    17.3800        70
    17.4000        72
    17.4200        78
    17.4400        64
    17.4600        64
    17.4800        74
    17.5000        74
    17.5200        78
    17.5400        66
    17.5600        58
    17.5800        74
    17.6000        78
    17.6200        66
    17.6400        84
    17.6600        68
    17.6800        56
    17.7000        78
    17.7200        80
    17.7400        90
    17.7600        72
    17.7800        70
    17.8000        76
    17.8200        58
    17.8400       104
    17.8600        82
    17.8800        78
    17.9000        72
    17.9200        60
    17.9400        82
    17.9600        66
    17.9800        72
    18.0000        72
    18.0200        84
    18.0400        70
    18.0600        90
    18.0800       106
    18.1000        88
    18.1200        84
    18.1400       102
    18.1600       110
    18.1800       102
    18.2000       116
    18.2200       132
    18.2400       134
    18.2600       134
    18.2800       134
    18.3000       192
    18.3200       154
    18.3400       192
    18.3600       186
    18.3800       232
    18.4000       278
    18.4200       248
    18.4400       328
    18.4600       352
    18.4800       396
    18.5000       496
    18.5200       532
    18.5400       660
    18.5600       698
    18.5800       724
    18.6000       712
    18.6200       742
    18.6400       666
    18.6600       604
    18.6800       468
    18.7000       362
    18.7200       294
    18.7400       274
    18.7600       194
    18.7800       186
    18.8000       164
    18.8200       162
    18.8400       134
    18.8600       128
    18.8800       144
    18.9000       122
    18.9200       130
    18.9400       130
    18.9600       136
    18.9800       138
    19.0000       172
    19.0200       192
    19.0400       214
    19.0600       242
    19.0800       236
    19.1000       252
    19.1200       284
    19.1400       258
    19.1600       252
    19.1800       264
    19.2000       270
    19.2200       232
    19.2400       210
    19.2600       242
    19.2800       188
    19.3000       210
    19.3200       222
    19.3400       186
    19.3600       194
    19.3800       198
    19.4000       190
    19.4200       180
    19.4400       162
    19.4600       166
    19.4800       156
    19.5000       174
    19.5200       158
    19.5400       166
    19.5600       158
    19.5800       138
    19.6000       162
    19.6200       138
    19.6400       164
    19.6600       152
    19.6800       148
    19.7000       142
    19.7200       150
    19.7400       142
    19.7600       136
    19.7800       130
    19.8000       136
    19.8200       144
    19.8400       138
    19.8600       134
    19.8800       140
    19.9000       136
    19.9200       142
    19.9400       122
    19.9600       142
    19.9800       142
    20.0000       132
    20.0200       120
    20.0400       116
    20.0600       100
    20.0800       124
    20.1000       126
    20.1200       116
    20.1400       138
    20.1600       142
    20.1800       122
    20.2000       126
    20.2200       150
    20.2400       108
    20.2600       142
    20.2800        94
    20.3000       130
    20.3200       124
    20.3400       110
    20.3600       106
    20.3800       112
