/////////////////////////////////////////////////////////////////////////////////
/// Profile Data Ascii Dump (XRD)                                             ///
/////////////////////////////////////////////////////////////////////////////////

  Group     : Swayze
  Data      : GSB
  File Name : GSB.RAW

# Profile Datafile
          comment             = Olivine-60u-Hoefen 
          date & time         = 08-04-28 06:47:29 

# Measurement Condition
    X-ray tube
          target              = Cu 
          voltage             = 40.0 (kV)
          current             = 30.0 (mA)
    Slits
          divergence slit     = 2.00000 (deg) 
          scatter slit        = 2.00000 (deg) 
          receiving slit      = 0.15000 (mm)  
    Scanning
          drive axis          = Theta-2Theta 
          scan range          =    4.000 -   65.000 
          scan mode           = Continuous Scan 
          scan speed          =   2.0000 (deg/min) 
          sampling pitch      =   0.0200 (deg) 
          preset time         =   0.60 (sec) 

# Data      [ Total No. = 3051 ]
  <2Theta>   <   I   >
     4.0000       176
     4.0200       202
     4.0400       190
     4.0600       192
     4.0800       192
     4.1000       198
     4.1200       210
     4.1400       172
     4.1600       172
     4.1800       188
     4.2000       184
     4.2200       186
     4.2400       194
     4.2600       162
     4.2800       182
     4.3000       202
     4.3200       200
     4.3400       156
     4.3600       178
     4.3800       178
     4.4000       178
     4.4200       186
     4.4400       164
     4.4600       166
     4.4800       168
     4.5000       166
     4.5200       168
     4.5400       134
     4.5600       204
     4.5800       152
     4.6000       176
     4.6200       162
     4.6400       170
     4.6600       154
     4.6800       182
     4.7000       178
     4.7200       182
     4.7400       162
     4.7600       174
     4.7800       150
     4.8000       160
     4.8200       182
     4.8400       158
     4.8600       168
     4.8800       138
     4.9000       188
     4.9200       164
     4.9400       146
     4.9600       184
     4.9800       178
     5.0000       172
     5.0200       164
     5.0400       182
     5.0600       174
     5.0800       178
     5.1000       162
     5.1200       154
     5.1400       154
     5.1600       188
     5.1800       156
     5.2000       172
     5.2200       202
     5.2400       176
     5.2600       162
     5.2800       132
     5.3000       178
     5.3200       164
     5.3400       156
     5.3600       164
     5.3800       172
     5.4000       162
     5.4200       158
     5.4400       164
     5.4600       140
     5.4800       162
     5.5000       176
     5.5200       172
     5.5400       154
     5.5600       158
     5.5800       164
     5.6000       162
     5.6200       166
     5.6400       166
     5.6600       162
     5.6800       150
     5.7000       210
     5.7200       154
     5.7400       168
     5.7600       166
     5.7800       180
     5.8000       154
     5.8200       176
     5.8400       162
     5.8600       144
     5.8800       170
     5.9000       172
     5.9200       164
     5.9400       162
     5.9600       178
     5.9800       164
     6.0000       162
     6.0200       166
     6.0400       182
     6.0600       152
     6.0800       154
     6.1000       140
     6.1200       162
     6.1400       142
     6.1600       158
     6.1800       148
     6.2000       180
     6.2200       134
     6.2400       180
     6.2600       156
     6.2800       150
     6.3000       168
     6.3200       142
     6.3400       160
     6.3600       160
     6.3800       166
     6.4000       142
     6.4200       170
     6.4400       148
     6.4600       130
     6.4800       134
     6.5000       126
     6.5200       134
     6.5400       138
     6.5600       118
     6.5800       134
     6.6000       168
     6.6200       146
     6.6400       122
     6.6600       138
     6.6800       150
     6.7000       132
     6.7200       138
     6.7400       116
     6.7600       132
     6.7800       148
     6.8000       132
     6.8200       128
     6.8400       128
     6.8600       110
     6.8800       116
     6.9000       120
     6.9200       140
     6.9400       134
     6.9600       120
     6.9800       132
     7.0000       106
     7.0200       148
     7.0400       118
     7.0600       128
     7.0800       102
     7.1000       112
     7.1200       108
     7.1400       132
     7.1600       114
     7.1800       126
     7.2000       108
     7.2200       122
     7.2400       112
     7.2600       120
     7.2800       122
     7.3000       134
     7.3200       106
     7.3400       130
     7.3600       110
     7.3800       112
     7.4000       104
     7.4200       100
     7.4400       120
     7.4600       120
     7.4800       110
     7.5000       112
     7.5200       106
     7.5400       120
     7.5600       122
     7.5800       118
     7.6000       124
     7.6200       124
     7.6400       138
     7.6600       110
     7.6800       112
     7.7000       116
     7.7200       120
     7.7400       126
     7.7600       108
     7.7800       150
     7.8000       110
     7.8200       124
     7.8400       138
     7.8600       128
     7.8800       114
     7.9000       136
     7.9200       114
     7.9400       126
     7.9600       110
     7.9800       140
     8.0000       108
     8.0200       116
     8.0400       106
     8.0600        98
     8.0800       106
     8.1000       106
     8.1200       124
     8.1400       106
     8.1600       136
     8.1800       110
     8.2000       126
     8.2200       118
     8.2400       110
     8.2600       106
     8.2800        92
     8.3000       116
     8.3200       114
     8.3400       126
     8.3600       128
     8.3800       112
     8.4000       112
     8.4200       116
     8.4400       116
     8.4600       122
     8.4800       118
     8.5000       108
     8.5200       104
     8.5400       144
     8.5600       114
     8.5800       122
     8.6000       104
     8.6200       130
     8.6400       112
     8.6600       112
     8.6800       104
     8.7000       118
     8.7200       104
     8.7400       120
     8.7600       120
     8.7800       110
     8.8000       130
     8.8200       114
     8.8400       134
     8.8600       122
     8.8800       120
     8.9000        98
     8.9200       118
     8.9400       122
     8.9600       106
     8.9800        92
     9.0000       140
     9.0200       124
     9.0400       126
     9.0600       114
     9.0800       116
     9.1000        92
     9.1200       114
     9.1400       122
     9.1600       120
     9.1800       118
     9.2000       104
     9.2200       110
     9.2400       102
     9.2600       116
     9.2800       122
     9.3000       104
     9.3200       124
     9.3400       122
     9.3600       102
     9.3800       118
     9.4000       112
     9.4200       138
     9.4400       136
     9.4600        98
     9.4800       124
     9.5000       106
     9.5200       104
     9.5400       110
     9.5600       100
     9.5800       106
     9.6000        96
     9.6200        96
     9.6400       136
     9.6600       128
     9.6800       104
     9.7000       128
     9.7200       128
     9.7400       120
     9.7600       116
     9.7800       100
     9.8000       126
     9.8200       100
     9.8400       120
     9.8600       108
     9.8800       114
     9.9000       122
     9.9200       112
     9.9400        90
     9.9600       124
     9.9800       116
    10.0000       116
    10.0200       108
    10.0400       116
    10.0600       108
    10.0800       108
    10.1000       106
    10.1200       108
    10.1400       106
    10.1600        88
    10.1800       116
    10.2000       102
    10.2200       106
    10.2400       104
    10.2600        90
    10.2800       110
    10.3000       128
    10.3200       102
    10.3400        88
    10.3600       110
    10.3800       104
    10.4000        94
    10.4200       104
    10.4400       102
    10.4600        90
    10.4800       132
    10.5000        84
    10.5200       118
    10.5400       112
    10.5600        92
    10.5800       116
    10.6000       104
    10.6200        84
    10.6400        88
    10.6600        88
    10.6800       116
    10.7000       104
    10.7200        94
    10.7400       128
    10.7600       116
    10.7800        92
    10.8000        90
    10.8200        92
    10.8400       102
    10.8600       100
    10.8800        92
    10.9000        88
    10.9200        78
    10.9400        90
    10.9600       104
    10.9800        84
    11.0000        84
    11.0200       106
    11.0400        90
    11.0600        88
    11.0800        90
    11.1000       102
    11.1200        78
    11.1400       100
    11.1600        94
    11.1800        82
    11.2000        88
    11.2200        92
    11.2400       100
    11.2600       104
    11.2800        88
    11.3000        80
    11.3200        84
    11.3400        90
    11.3600        86
    11.3800        68
    11.4000        82
    11.4200        90
    11.4400        90
    11.4600        86
    11.4800        84
    11.5000        76
    11.5200        84
    11.5400        84
    11.5600        76
    11.5800       100
    11.6000        86
    11.6200        94
    11.6400        86
    11.6600       102
    11.6800        90
    11.7000        76
    11.7200        84
    11.7400        88
    11.7600        90
    11.7800        92
    11.8000        98
    11.8200       104
    11.8400        98
    11.8600        78
    11.8800        80
    11.9000        72
    11.9200        84
    11.9400        88
    11.9600        82
    11.9800        72
    12.0000        80
    12.0200        82
    12.0400        78
    12.0600        80
    12.0800        88
    12.1000        94
    12.1200        88
    12.1400        78
    12.1600        84
    12.1800        90
    12.2000        72
    12.2200        70
    12.2400        98
    12.2600        86
    12.2800        90
    12.3000        82
    12.3200        56
    12.3400        74
    12.3600        76
    12.3800        84
    12.4000        80
    12.4200        74
    12.4400        70
    12.4600        96
    12.4800        92
    12.5000        54
    12.5200        66
    12.5400        70
    12.5600        84
    12.5800        76
    12.6000        86
    12.6200        74
    12.6400        82
    12.6600        82
    12.6800        72
    12.7000        88
    12.7200        80
    12.7400        74
    12.7600        90
    12.7800        58
    12.8000        72
    12.8200        74
    12.8400        64
    12.8600        60
    12.8800        76
    12.9000        80
    12.9200        80
    12.9400        76
    12.9600        72
    12.9800        84
    13.0000        72
    13.0200        76
    13.0400        82
    13.0600        58
    13.0800        64
    13.1000        66
    13.1200        74
    13.1400        64
    13.1600        88
    13.1800        74
    13.2000        84
    13.2200        94
    13.2400        74
    13.2600        74
    13.2800        76
    13.3000        68
    13.3200        72
    13.3400        86
    13.3600        52
    13.3800        56
    13.4000        68
    13.4200        64
    13.4400        62
    13.4600        72
    13.4800        82
    13.5000        90
    13.5200        70
    13.5400        58
    13.5600        64
    13.5800        80
    13.6000        86
    13.6200        64
    13.6400        70
    13.6600        76
    13.6800        74
    13.7000        68
    13.7200        84
    13.7400        64
    13.7600        56
    13.7800        74
    13.8000        68
    13.8200        64
    13.8400        74
    13.8600        78
    13.8800        80
    13.9000        72
    13.9200        74
    13.9400        66
    13.9600        74
    13.9800        88
    14.0000        62
    14.0200        60
    14.0400        74
    14.0600        68
    14.0800        78
    14.1000        72
    14.1200        84
    14.1400        52
    14.1600        70
    14.1800        78
    14.2000        60
    14.2200        74
    14.2400        66
    14.2600        74
    14.2800        54
    14.3000        66
    14.3200        54
    14.3400        86
    14.3600        60
    14.3800        62
    14.4000        78
    14.4200        52
    14.4400        64
    14.4600        60
    14.4800        54
    14.5000        72
    14.5200        60
    14.5400        60
    14.5600        74
    14.5800        66
    14.6000        72
    14.6200        60
    14.6400        70
    14.6600        68
    14.6800        60
    14.7000        72
    14.7200        76
    14.7400        68
    14.7600        74
    14.7800        72
    14.8000        72
    14.8200        60
    14.8400        70
    14.8600        72
    14.8800        64
    14.9000        60
    14.9200        60
    14.9400        62
    14.9600        58
    14.9800        70
    15.0000        64
    15.0200        62
    15.0400        54
    15.0600        60
    15.0800        60
    15.1000        66
    15.1200        64
    15.1400        80
    15.1600        68
    15.1800        56
    15.2000        82
    15.2200        66
    15.2400        70
    15.2600        64
    15.2800        68
    15.3000        50
    15.3200        62
    15.3400        64
    15.3600        64
    15.3800        68
    15.4000        56
    15.4200        76
    15.4400        68
    15.4600        72
    15.4800        72
    15.5000        48
    15.5200        60
    15.5400        62
    15.5600        64
    15.5800        54
    15.6000        42
    15.6200        76
    15.6400        54
    15.6600        66
    15.6800        70
    15.7000        60
    15.7200        68
    15.7400        70
    15.7600        76
    15.7800        72
    15.8000        48
    15.8200        66
    15.8400        74
    15.8600        66
    15.8800        84
    15.9000        50
    15.9200        62
    15.9400        66
    15.9600        68
    15.9800        52
    16.0000        56
    16.0200        72
    16.0400        64
    16.0600        74
    16.0800        54
    16.1000        58
    16.1200        62
    16.1400        62
    16.1600        48
    16.1800        48
    16.2000        54
    16.2200        40
    16.2400        76
    16.2600        52
    16.2800        66
    16.3000        84
    16.3200        56
    16.3400        82
    16.3600        56
    16.3800        62
    16.4000        68
    16.4200        64
    16.4400        64
    16.4600        60
    16.4800        54
    16.5000        72
    16.5200        46
    16.5400        72
    16.5600        66
    16.5800        70
    16.6000        62
    16.6200        80
    16.6400        42
    16.6600        64
    16.6800        66
    16.7000        60
    16.7200        76
    16.7400        60
    16.7600        64
    16.7800        62
    16.8000        74
    16.8200        72
    16.8400        74
    16.8600        82
    16.8800        72
    16.9000        78
    16.9200        92
    16.9400        90
    16.9600       104
    16.9800       112
    17.0000       114
    17.0200       114
    17.0400       128
    17.0600       162
    17.0800       208
    17.1000       184
    17.1200       208
    17.1400       226
    17.1600       228
    17.1800       258
    17.2000       306
    17.2200       380
    17.2400       414
    17.2600       460
    17.2800       398
    17.3000       388
    17.3200       296
    17.3400       230
    17.3600       140
    17.3800       108
    17.4000        86
    17.4200        78
    17.4400        64
    17.4600        76
    17.4800        64
    17.5000        64
    17.5200        64
    17.5400        66
    17.5600        68
    17.5800        66
    17.6000        68
    17.6200        40
    17.6400        48
    17.6600        50
    17.6800        58
    17.7000        66
    17.7200        52
    17.7400        56
    17.7600        62
    17.7800        64
    17.8000        78
    17.8200        58
    17.8400        64
    17.8600        54
    17.8800        52
    17.9000        66
    17.9200        68
    17.9400        48
    17.9600        40
    17.9800        38
    18.0000        54
    18.0200        56
    18.0400        42
    18.0600        64
    18.0800        52
    18.1000        72
    18.1200        48
    18.1400        56
    18.1600        56
    18.1800        56
    18.2000        58
    18.2200        46
    18.2400        46
    18.2600        72
    18.2800        58
    18.3000        56
    18.3200        44
    18.3400        58
    18.3600        56
    18.3800        64
    18.4000        70
    18.4200        40
    18.4400        60
    18.4600        60
    18.4800        54
    18.5000        60
    18.5200        60
    18.5400        56
    18.5600        56
    18.5800        58
    18.6000        62
    18.6200        56
    18.6400        56
    18.6600        54
    18.6800        66
    18.7000        54
    18.7200        60
    18.7400        44
    18.7600        66
    18.7800        54
    18.8000        54
    18.8200        62
    18.8400        46
    18.8600        52
    18.8800        72
    18.9000        56
    18.9200        60
    18.9400        52
    18.9600        60
    18.9800        54
    19.0000        56
    19.0200        58
    19.0400        54
    19.0600        66
    19.0800        62
    19.1000        50
    19.1200        54
    19.1400        54
    19.1600        58
    19.1800        48
    19.2000        52
    19.2200        50
    19.2400        64
    19.2600        64
    19.2800        62
    19.3000        62
    19.3200        48
    19.3400        54
    19.3600        56
    19.3800        46
    19.4000        50
    19.4200        62
    19.4400        48
    19.4600        54
    19.4800        58
    19.5000        62
    19.5200        60
    19.5400        58
    19.5600        46
    19.5800        54
    19.6000        64
    19.6200        56
    19.6400        48
    19.6600        44
    19.6800        52
    19.7000        50
    19.7200        54
    19.7400        54
    19.7600        48
    19.7800        64
    19.8000        48
    19.8200        58
    19.8400        56
    19.8600        48
    19.8800        62
    19.9000        50
    19.9200        58
    19.9400        60
    19.9600        50
    19.9800        52
    20.0000        56
    20.0200        56
    20.0400        48
    20.0600        54
    20.0800        52
    20.1000        54
    20.1200        64
    20.1400        54
    20.1600        46
    20.1800        50
    20.2000        48
    20.2200        56
    20.2400        60
    20.2600        52
    20.2800        64
    20.3000        54
    20.3200        50
    20.3400        58
    20.3600        50
    20.3800        56
