/////////////////////////////////////////////////////////////////////////////////
/// Profile Data Ascii Dump (XRD)                                             ///
/////////////////////////////////////////////////////////////////////////////////

  Group     : Swayze
  Data      : RLO 2127
  File Name : RLO 2127.RAW

# Profile Datafile
          comment             =   
          date & time         = 08-03-11 07:07:41 

# Measurement Condition
    X-ray tube
          target              = Cu 
          voltage             = 40.0 (kV)
          current             = 30.0 (mA)
    Slits
          divergence slit     = 2.00000 (deg) 
          scatter slit        = 2.00000 (deg) 
          receiving slit      = 0.15000 (mm)  
    Scanning
          drive axis          = Theta-2Theta 
          scan range          =    4.000 -   65.000 
          scan mode           = Continuous Scan 
          scan speed          =   2.0000 (deg/min) 
          sampling pitch      =   0.0200 (deg) 
          preset time         =   0.60 (sec) 

# Data      [ Total No. = 3051 ]
  <2Theta>   <   I   >
     4.0000       222
     4.0200       218
     4.0400       196
     4.0600       208
     4.0800       224
     4.1000       248
     4.1200       202
     4.1400       234
     4.1600       244
     4.1800       240
     4.2000       228
     4.2200       208
     4.2400       192
     4.2600       214
     4.2800       210
     4.3000       220
     4.3200       212
     4.3400       196
     4.3600       210
     4.3800       190
     4.4000       182
     4.4200       202
     4.4400       188
     4.4600       204
     4.4800       212
     4.5000       204
     4.5200       226
     4.5400       194
     4.5600       204
     4.5800       184
     4.6000       190
     4.6200       188
     4.6400       198
     4.6600       192
     4.6800       176
     4.7000       208
     4.7200       182
     4.7400       184
     4.7600       170
     4.7800       184
     4.8000       208
     4.8200       182
     4.8400       194
     4.8600       198
     4.8800       222
     4.9000       180
     4.9200       208
     4.9400       184
     4.9600       174
     4.9800       198
     5.0000       180
     5.0200       194
     5.0400       186
     5.0600       198
     5.0800       204
     5.1000       178
     5.1200       192
     5.1400       210
     5.1600       212
     5.1800       210
     5.2000       202
     5.2200       210
     5.2400       192
     5.2600       204
     5.2800       178
     5.3000       198
     5.3200       210
     5.3400       204
     5.3600       204
     5.3800       194
     5.4000       192
     5.4200       196
     5.4400       222
     5.4600       206
     5.4800       192
     5.5000       224
     5.5200       208
     5.5400       216
     5.5600       228
     5.5800       194
     5.6000       204
     5.6200       220
     5.6400       206
     5.6600       214
     5.6800       216
     5.7000       244
     5.7200       212
     5.7400       180
     5.7600       208
     5.7800       204
     5.8000       254
     5.8200       216
     5.8400       226
     5.8600       224
     5.8800       212
     5.9000       232
     5.9200       212
     5.9400       212
     5.9600       216
     5.9800       192
     6.0000       230
     6.0200       226
     6.0400       248
     6.0600       272
     6.0800       244
     6.1000       198
     6.1200       210
     6.1400       220
     6.1600       234
     6.1800       216
     6.2000       236
     6.2200       236
     6.2400       240
     6.2600       210
     6.2800       232
     6.3000       226
     6.3200       234
     6.3400       232
     6.3600       232
     6.3800       238
     6.4000       252
     6.4200       226
     6.4400       232
     6.4600       224
     6.4800       232
     6.5000       224
     6.5200       198
     6.5400       230
     6.5600       230
     6.5800       220
     6.6000       222
     6.6200       226
     6.6400       224
     6.6600       206
     6.6800       192
     6.7000       234
     6.7200       222
     6.7400       216
     6.7600       202
     6.7800       210
     6.8000       204
     6.8200       196
     6.8400       190
     6.8600       194
     6.8800       196
     6.9000       194
     6.9200       190
     6.9400       200
     6.9600       182
     6.9800       180
     7.0000       198
     7.0200       192
     7.0400       188
     7.0600       194
     7.0800       168
     7.1000       202
     7.1200       196
     7.1400       162
     7.1600       168
     7.1800       192
     7.2000       160
     7.2200       162
     7.2400       180
     7.2600       174
     7.2800       174
     7.3000       164
     7.3200       160
     7.3400       152
     7.3600       144
     7.3800       128
     7.4000       156
     7.4200       170
     7.4400       180
     7.4600       172
     7.4800       150
     7.5000       144
     7.5200       156
     7.5400       164
     7.5600       140
     7.5800       144
     7.6000       132
     7.6200       160
     7.6400       158
     7.6600       158
     7.6800       162
     7.7000       144
     7.7200       144
     7.7400       148
     7.7600       144
     7.7800       130
     7.8000       114
     7.8200       172
     7.8400       138
     7.8600       142
     7.8800       150
     7.9000       140
     7.9200       134
     7.9400       158
     7.9600       120
     7.9800       126
     8.0000       124
     8.0200       142
     8.0400       140
     8.0600       136
     8.0800       134
     8.1000       148
     8.1200       148
     8.1400       124
     8.1600       128
     8.1800       142
     8.2000       128
     8.2200       150
     8.2400       164
     8.2600       130
     8.2800       124
     8.3000       150
     8.3200       134
     8.3400       146
     8.3600       126
     8.3800       158
     8.4000       144
     8.4200       150
     8.4400       158
     8.4600       146
     8.4800       136
     8.5000       154
     8.5200       136
     8.5400       144
     8.5600       142
     8.5800       168
     8.6000       178
     8.6200       142
     8.6400       180
     8.6600       162
     8.6800       176
     8.7000       176
     8.7200       182
     8.7400       180
     8.7600       198
     8.7800       182
     8.8000       204
     8.8200       206
     8.8400       216
     8.8600       216
     8.8800       188
     8.9000       196
     8.9200       152
     8.9400       194
     8.9600       158
     8.9800       146
     9.0000       130
     9.0200       136
     9.0400       130
     9.0600       118
     9.0800       144
     9.1000       120
     9.1200       138
     9.1400       122
     9.1600       124
     9.1800       132
     9.2000       150
     9.2200       116
     9.2400       126
     9.2600       108
     9.2800       116
     9.3000       156
     9.3200       128
     9.3400       118
     9.3600       122
     9.3800       114
     9.4000       112
     9.4200       140
     9.4400       164
     9.4600       128
     9.4800       138
     9.5000       142
     9.5200       146
     9.5400       132
     9.5600       102
     9.5800       156
     9.6000       144
     9.6200       144
     9.6400       116
     9.6600       102
     9.6800       150
     9.7000       118
     9.7200        94
     9.7400       130
     9.7600       122
     9.7800       120
     9.8000       110
     9.8200       122
     9.8400       126
     9.8600       112
     9.8800       136
     9.9000       120
     9.9200       100
     9.9400       104
     9.9600       110
     9.9800       122
    10.0000       118
    10.0200       108
    10.0400        98
    10.0600       122
    10.0800       116
    10.1000       118
    10.1200       114
    10.1400       130
    10.1600       114
    10.1800       116
    10.2000       100
    10.2200       134
    10.2400       102
    10.2600       124
    10.2800       110
    10.3000       120
    10.3200       114
    10.3400       104
    10.3600       136
    10.3800       116
    10.4000       108
    10.4200       116
    10.4400       112
    10.4600       110
    10.4800       104
    10.5000       122
    10.5200       118
    10.5400       116
    10.5600       102
    10.5800       110
    10.6000       120
    10.6200        98
    10.6400       106
    10.6600       126
    10.6800       112
    10.7000       100
    10.7200        98
    10.7400       108
    10.7600       104
    10.7800       118
    10.8000       116
    10.8200       116
    10.8400       108
    10.8600        94
    10.8800       104
    10.9000       106
    10.9200       124
    10.9400       114
    10.9600       104
    10.9800       104
    11.0000        92
    11.0200       108
    11.0400       108
    11.0600       106
    11.0800       108
    11.1000       116
    11.1200       130
    11.1400        86
    11.1600       110
    11.1800       122
    11.2000       104
    11.2200       114
    11.2400       110
    11.2600       118
    11.2800       102
    11.3000       124
    11.3200       126
    11.3400       118
    11.3600       114
    11.3800       130
    11.4000       134
    11.4200       120
    11.4400       130
    11.4600       118
    11.4800       122
    11.5000       128
    11.5200       156
    11.5400       126
    11.5600       140
    11.5800       136
    11.6000       134
    11.6200       136
    11.6400       162
    11.6600       180
    11.6800       138
    11.7000       126
    11.7200       166
    11.7400       172
    11.7600       172
    11.7800       208
    11.8000       182
    11.8200       218
    11.8400       216
    11.8600       242
    11.8800       234
    11.9000       256
    11.9200       258
    11.9400       244
    11.9600       320
    11.9800       334
    12.0000       320
    12.0200       358
    12.0400       382
    12.0600       420
    12.0800       432
    12.1000       500
    12.1200       508
    12.1400       622
    12.1600       662
    12.1800       612
    12.2000       698
    12.2200       836
    12.2400       942
    12.2600      1012
    12.2800      1080
    12.3000      1190
    12.3200      1272
    12.3400      1316
    12.3600      1292
    12.3800      1248
    12.4000      1154
    12.4200       942
    12.4400       818
    12.4600       610
    12.4800       506
    12.5000       420
    12.5200       322
    12.5400       294
    12.5600       260
    12.5800       202
    12.6000       212
    12.6200       208
    12.6400       178
    12.6600       174
    12.6800       168
    12.7000       172
    12.7200       142
    12.7400       144
    12.7600       124
    12.7800       102
    12.8000       132
    12.8200       122
    12.8400       100
    12.8600       104
    12.8800       104
    12.9000        90
    12.9200        74
    12.9400       106
    12.9600        84
    12.9800       108
    13.0000        92
    13.0200        86
    13.0400        92
    13.0600        86
    13.0800        82
    13.1000        96
    13.1200        88
    13.1400        92
    13.1600        80
    13.1800        86
    13.2000        94
    13.2200       100
    13.2400        88
    13.2600       106
    13.2800        78
    13.3000        94
    13.3200        96
    13.3400        84
    13.3600        96
    13.3800        94
    13.4000        74
    13.4200        90
    13.4400        86
    13.4600        98
    13.4800        84
    13.5000        98
    13.5200       100
    13.5400        82
    13.5600        98
    13.5800        82
    13.6000       110
    13.6200        92
    13.6400        58
    13.6600        70
    13.6800        62
    13.7000        90
    13.7200        66
    13.7400        88
    13.7600        88
    13.7800        72
    13.8000        86
    13.8200        60
    13.8400        74
    13.8600        60
    13.8800        70
    13.9000       100
    13.9200        70
    13.9400        60
    13.9600        82
    13.9800        70
    14.0000        70
    14.0200        70
    14.0400        60
    14.0600        84
    14.0800        66
    14.1000        64
    14.1200        76
    14.1400        66
    14.1600        70
    14.1800        50
    14.2000        64
    14.2200        74
    14.2400        66
    14.2600        92
    14.2800        68
    14.3000        68
    14.3200        68
    14.3400        56
    14.3600        68
    14.3800        52
    14.4000        64
    14.4200        68
    14.4400        66
    14.4600        80
    14.4800        60
    14.5000        58
    14.5200        70
    14.5400        66
    14.5600        54
    14.5800        62
    14.6000        58
    14.6200        62
    14.6400        76
    14.6600        72
    14.6800        68
    14.7000        68
    14.7200        60
    14.7400        58
    14.7600        64
    14.7800        68
    14.8000        72
    14.8200        74
    14.8400        52
    14.8600        70
    14.8800        74
    14.9000        64
    14.9200        62
    14.9400        68
    14.9600        86
    14.9800        86
    15.0000        64
    15.0200        70
    15.0400        64
    15.0600        72
    15.0800        68
    15.1000        62
    15.1200        60
    15.1400        68
    15.1600        72
    15.1800        50
    15.2000        64
    15.2200        70
    15.2400        54
    15.2600        80
    15.2800        46
    15.3000        70
    15.3200        60
    15.3400        58
    15.3600        60
    15.3800        54
    15.4000        64
    15.4200        54
    15.4400        70
    15.4600        48
    15.4800        62
    15.5000        78
    15.5200        60
    15.5400        50
    15.5600        66
    15.5800        54
    15.6000        74
    15.6200        58
    15.6400        72
    15.6600        58
    15.6800        60
    15.7000        56
    15.7200        48
    15.7400        62
    15.7600        54
    15.7800        50
    15.8000        56
    15.8200        58
    15.8400        54
    15.8600        66
    15.8800        64
    15.9000        58
    15.9200        70
    15.9400        58
    15.9600        48
    15.9800        66
    16.0000        68
    16.0200        60
    16.0400        60
    16.0600        46
    16.0800        60
    16.1000        80
    16.1200        50
    16.1400        60
    16.1600        56
    16.1800        68
    16.2000        52
    16.2200        60
    16.2400        52
    16.2600        54
    16.2800        58
    16.3000        64
    16.3200        60
    16.3400        44
    16.3600        52
    16.3800        68
    16.4000        48
    16.4200        52
    16.4400        48
    16.4600        66
    16.4800        60
    16.5000        52
    16.5200        56
    16.5400        60
    16.5600        60
    16.5800        56
    16.6000        60
    16.6200        48
    16.6400        66
    16.6600        68
    16.6800        50
    16.7000        60
    16.7200        56
    16.7400        64
    16.7600        52
    16.7800        58
    16.8000        60
    16.8200        64
    16.8400        50
    16.8600        54
    16.8800        64
    16.9000        64
    16.9200        36
    16.9400        56
    16.9600        52
    16.9800        64
    17.0000        58
    17.0200        58
    17.0400        56
    17.0600        68
    17.0800        68
    17.1000        52
    17.1200        60
    17.1400        50
    17.1600        54
    17.1800        50
    17.2000        62
    17.2200        52
    17.2400        64
    17.2600        60
    17.2800        58
    17.3000        58
    17.3200        54
    17.3400        50
    17.3600        66
    17.3800        64
    17.4000        54
    17.4200        82
    17.4400        64
    17.4600        48
    17.4800        72
    17.5000        86
    17.5200        72
    17.5400        66
    17.5600        78
    17.5800        70
    17.6000        68
    17.6200        72
    17.6400        72
    17.6600        96
    17.6800        84
    17.7000       106
    17.7200        78
    17.7400        92
    17.7600        96
    17.7800        92
    17.8000        96
    17.8200        68
    17.8400        82
    17.8600        64
    17.8800        62
    17.9000        64
    17.9200        58
    17.9400        66
    17.9600        64
    17.9800        64
    18.0000        58
    18.0200        62
    18.0400        60
    18.0600        62
    18.0800        76
    18.1000        54
    18.1200        66
    18.1400        56
    18.1600        50
    18.1800        54
    18.2000        64
    18.2200        60
    18.2400        40
    18.2600        56
    18.2800        56
    18.3000        60
    18.3200        64
    18.3400        56
    18.3600        52
    18.3800        52
    18.4000        50
    18.4200        62
    18.4400        48
    18.4600        52
    18.4800        64
    18.5000        50
    18.5200        56
    18.5400        64
    18.5600        46
    18.5800        48
    18.6000        48
    18.6200        56
    18.6400        64
    18.6600        60
    18.6800        62
    18.7000        56
    18.7200        48
    18.7400        58
    18.7600        70
    18.7800        48
    18.8000        48
    18.8200        48
    18.8400        60
    18.8600        52
    18.8800        50
    18.9000        60
    18.9200        44
    18.9400        60
    18.9600        64
    18.9800        56
    19.0000        60
    19.0200        58
    19.0400        56
    19.0600        60
    19.0800        66
    19.1000        50
    19.1200        60
    19.1400        66
    19.1600        66
    19.1800        62
    19.2000        64
    19.2200        52
    19.2400        66
    19.2600        74
    19.2800        70
    19.3000        64
    19.3200        62
    19.3400        52
    19.3600        78
    19.3800        66
    19.4000        94
    19.4200        70
    19.4400        68
    19.4600        78
    19.4800        86
    19.5000        88
    19.5200        88
    19.5400        90
    19.5600       104
    19.5800        94
    19.6000       110
    19.6200       124
    19.6400       116
    19.6600       142
    19.6800       140
    19.7000       124
    19.7200       162
    19.7400       202
    19.7600       196
    19.7800       204
    19.8000       238
    19.8200       234
    19.8400       260
    19.8600       256
    19.8800       234
    19.9000       234
    19.9200       204
    19.9400       220
    19.9600       184
    19.9800       184
    20.0000       180
    20.0200       164
    20.0400       184
    20.0600       158
    20.0800       178
    20.1000       176
    20.1200       186
    20.1400       188
    20.1600       200
    20.1800       202
    20.2000       204
    20.2200       236
    20.2400       270
    20.2600       250
    20.2800       222
    20.3000       232
    20.3200       244
    20.3400       244
    20.3600       262
    20.3800       240
