/////////////////////////////////////////////////////////////////////////////////
/// Profile Data Ascii Dump (XRD)                                             ///
/////////////////////////////////////////////////////////////////////////////////

  Group     : Swayze
  Data      : RLO 2125
  File Name : RLO 2125.RAW

# Profile Datafile
          comment             =   
          date & time         = 08-03-11 07:38:40 

# Measurement Condition
    X-ray tube
          target              = Cu 
          voltage             = 40.0 (kV)
          current             = 30.0 (mA)
    Slits
          divergence slit     = 2.00000 (deg) 
          scatter slit        = 2.00000 (deg) 
          receiving slit      = 0.15000 (mm)  
    Scanning
          drive axis          = Theta-2Theta 
          scan range          =    4.000 -   65.000 
          scan mode           = Continuous Scan 
          scan speed          =   2.0000 (deg/min) 
          sampling pitch      =   0.0200 (deg) 
          preset time         =   0.60 (sec) 

# Data      [ Total No. = 3051 ]
  <2Theta>   <   I   >
     4.0000       216
     4.0200       214
     4.0400       198
     4.0600       208
     4.0800       192
     4.1000       208
     4.1200       206
     4.1400       178
     4.1600       218
     4.1800       190
     4.2000       184
     4.2200       230
     4.2400       198
     4.2600       210
     4.2800       190
     4.3000       214
     4.3200       178
     4.3400       216
     4.3600       170
     4.3800       214
     4.4000       170
     4.4200       166
     4.4400       192
     4.4600       200
     4.4800       198
     4.5000       198
     4.5200       208
     4.5400       178
     4.5600       194
     4.5800       172
     4.6000       182
     4.6200       190
     4.6400       184
     4.6600       206
     4.6800       174
     4.7000       198
     4.7200       156
     4.7400       160
     4.7600       170
     4.7800       154
     4.8000       152
     4.8200       166
     4.8400       166
     4.8600       178
     4.8800       170
     4.9000       174
     4.9200       176
     4.9400       176
     4.9600       156
     4.9800       176
     5.0000       172
     5.0200       184
     5.0400       154
     5.0600       156
     5.0800       164
     5.1000       166
     5.1200       190
     5.1400       162
     5.1600       178
     5.1800       182
     5.2000       172
     5.2200       156
     5.2400       152
     5.2600       156
     5.2800       160
     5.3000       160
     5.3200       168
     5.3400       158
     5.3600       160
     5.3800       190
     5.4000       178
     5.4200       176
     5.4400       148
     5.4600       162
     5.4800       170
     5.5000       142
     5.5200       158
     5.5400       166
     5.5600       170
     5.5800       172
     5.6000       150
     5.6200       158
     5.6400       192
     5.6600       192
     5.6800       162
     5.7000       178
     5.7200       186
     5.7400       200
     5.7600       186
     5.7800       164
     5.8000       186
     5.8200       156
     5.8400       190
     5.8600       174
     5.8800       170
     5.9000       170
     5.9200       160
     5.9400       156
     5.9600       180
     5.9800       174
     6.0000       176
     6.0200       162
     6.0400       184
     6.0600       158
     6.0800       170
     6.1000       148
     6.1200       176
     6.1400       162
     6.1600       138
     6.1800       166
     6.2000       162
     6.2200       170
     6.2400       148
     6.2600       158
     6.2800       154
     6.3000       128
     6.3200       162
     6.3400       148
     6.3600       150
     6.3800       120
     6.4000       164
     6.4200       146
     6.4400       118
     6.4600       142
     6.4800       132
     6.5000       144
     6.5200       140
     6.5400       146
     6.5600       148
     6.5800       132
     6.6000       142
     6.6200       142
     6.6400       150
     6.6600       130
     6.6800       138
     6.7000       134
     6.7200       124
     6.7400       136
     6.7600       146
     6.7800       134
     6.8000       132
     6.8200       138
     6.8400       126
     6.8600       142
     6.8800       122
     6.9000       134
     6.9200       106
     6.9400       120
     6.9600       128
     6.9800       114
     7.0000       112
     7.0200       128
     7.0400       140
     7.0600       134
     7.0800       146
     7.1000       114
     7.1200       136
     7.1400       116
     7.1600       122
     7.1800       128
     7.2000       126
     7.2200       116
     7.2400       120
     7.2600       132
     7.2800       136
     7.3000       110
     7.3200       150
     7.3400       138
     7.3600       112
     7.3800       106
     7.4000       132
     7.4200       114
     7.4400       138
     7.4600       120
     7.4800       114
     7.5000       122
     7.5200       122
     7.5400       132
     7.5600       136
     7.5800       120
     7.6000       118
     7.6200       130
     7.6400       112
     7.6600       140
     7.6800       122
     7.7000       134
     7.7200       126
     7.7400       132
     7.7600       126
     7.7800       108
     7.8000       120
     7.8200       118
     7.8400       114
     7.8600       142
     7.8800       130
     7.9000       124
     7.9200       128
     7.9400       146
     7.9600       118
     7.9800       118
     8.0000       108
     8.0200        98
     8.0400       130
     8.0600       124
     8.0800       142
     8.1000       124
     8.1200       122
     8.1400       148
     8.1600       118
     8.1800       144
     8.2000       120
     8.2200       126
     8.2400       144
     8.2600       136
     8.2800       124
     8.3000       122
     8.3200       136
     8.3400       142
     8.3600       124
     8.3800       116
     8.4000       130
     8.4200       122
     8.4400       134
     8.4600       124
     8.4800       154
     8.5000       120
     8.5200       158
     8.5400       146
     8.5600       136
     8.5800       164
     8.6000       132
     8.6200       154
     8.6400       144
     8.6600       168
     8.6800       170
     8.7000       144
     8.7200       170
     8.7400       190
     8.7600       194
     8.7800       228
     8.8000       218
     8.8200       264
     8.8400       180
     8.8600       198
     8.8800       156
     8.9000       164
     8.9200       138
     8.9400       128
     8.9600       134
     8.9800       124
     9.0000       132
     9.0200       128
     9.0400       104
     9.0600       122
     9.0800       118
     9.1000       118
     9.1200       142
     9.1400       110
     9.1600       128
     9.1800       106
     9.2000       130
     9.2200       124
     9.2400       130
     9.2600       134
     9.2800       102
     9.3000       124
     9.3200       120
     9.3400       146
     9.3600       114
     9.3800       140
     9.4000       120
     9.4200       110
     9.4400       100
     9.4600       134
     9.4800       138
     9.5000       110
     9.5200       122
     9.5400       134
     9.5600       116
     9.5800       110
     9.6000       118
     9.6200       116
     9.6400        90
     9.6600       102
     9.6800       106
     9.7000       104
     9.7200       110
     9.7400       134
     9.7600       114
     9.7800       106
     9.8000       114
     9.8200       116
     9.8400       120
     9.8600       114
     9.8800       128
     9.9000       104
     9.9200       108
     9.9400        90
     9.9600       116
     9.9800       142
    10.0000       102
    10.0200       110
    10.0400       106
    10.0600       122
    10.0800       100
    10.1000       126
    10.1200       114
    10.1400       130
    10.1600       108
    10.1800       110
    10.2000       110
    10.2200       104
    10.2400       124
    10.2600       132
    10.2800       110
    10.3000       142
    10.3200       100
    10.3400       116
    10.3600       122
    10.3800        92
    10.4000       108
    10.4200       108
    10.4400       110
    10.4600       112
    10.4800       110
    10.5000        96
    10.5200        98
    10.5400       106
    10.5600       110
    10.5800        86
    10.6000        98
    10.6200       100
    10.6400        98
    10.6600        98
    10.6800       110
    10.7000       112
    10.7200       112
    10.7400       128
    10.7600       106
    10.7800       100
    10.8000       104
    10.8200       132
    10.8400       104
    10.8600       122
    10.8800        94
    10.9000       118
    10.9200       116
    10.9400       116
    10.9600       108
    10.9800       122
    11.0000       138
    11.0200       106
    11.0400       114
    11.0600       124
    11.0800       106
    11.1000       120
    11.1200       106
    11.1400       106
    11.1600       106
    11.1800       120
    11.2000       118
    11.2200       112
    11.2400       124
    11.2600       102
    11.2800        96
    11.3000       104
    11.3200       136
    11.3400       122
    11.3600       122
    11.3800       108
    11.4000       110
    11.4200       130
    11.4400       132
    11.4600       138
    11.4800       122
    11.5000       134
    11.5200       152
    11.5400       128
    11.5600       190
    11.5800       186
    11.6000       162
    11.6200       180
    11.6400       176
    11.6600       206
    11.6800       206
    11.7000       194
    11.7200       230
    11.7400       230
    11.7600       250
    11.7800       262
    11.8000       280
    11.8200       294
    11.8400       376
    11.8600       382
    11.8800       436
    11.9000       430
    11.9200       456
    11.9400       532
    11.9600       516
    11.9800       570
    12.0000       662
    12.0200       720
    12.0400       778
    12.0600       872
    12.0800       962
    12.1000      1096
    12.1200      1206
    12.1400      1438
    12.1600      1570
    12.1800      1778
    12.2000      1964
    12.2200      2204
    12.2400      2412
    12.2600      2626
    12.2800      2614
    12.3000      2566
    12.3200      2376
    12.3400      2070
    12.3600      1648
    12.3800      1234
    12.4000       974
    12.4200       732
    12.4400       584
    12.4600       456
    12.4800       350
    12.5000       332
    12.5200       284
    12.5400       242
    12.5600       218
    12.5800       214
    12.6000       182
    12.6200       162
    12.6400       138
    12.6600       122
    12.6800       112
    12.7000       136
    12.7200       128
    12.7400       102
    12.7600       106
    12.7800       110
    12.8000       116
    12.8200        98
    12.8400        90
    12.8600        86
    12.8800        88
    12.9000       102
    12.9200        84
    12.9400        76
    12.9600        80
    12.9800        78
    13.0000        84
    13.0200        72
    13.0400        84
    13.0600        74
    13.0800        80
    13.1000        82
    13.1200        70
    13.1400        94
    13.1600        74
    13.1800        74
    13.2000        68
    13.2200        84
    13.2400        84
    13.2600        68
    13.2800        70
    13.3000        80
    13.3200        76
    13.3400        86
    13.3600        90
    13.3800        68
    13.4000        54
    13.4200        80
    13.4400        80
    13.4600        64
    13.4800        64
    13.5000        74
    13.5200        76
    13.5400        72
    13.5600        68
    13.5800        52
    13.6000        72
    13.6200        70
    13.6400        66
    13.6600        64
    13.6800        56
    13.7000        64
    13.7200        76
    13.7400        58
    13.7600        78
    13.7800        56
    13.8000        60
    13.8200        72
    13.8400        60
    13.8600        56
    13.8800        62
    13.9000        72
    13.9200        62
    13.9400        54
    13.9600        52
    13.9800        76
    14.0000        64
    14.0200        74
    14.0400        60
    14.0600        68
    14.0800        82
    14.1000        56
    14.1200        56
    14.1400        54
    14.1600        56
    14.1800        78
    14.2000        62
    14.2200        64
    14.2400        66
    14.2600        54
    14.2800        62
    14.3000        54
    14.3200        64
    14.3400        72
    14.3600        62
    14.3800        46
    14.4000        68
    14.4200        70
    14.4400        56
    14.4600        66
    14.4800        66
    14.5000        50
    14.5200        52
    14.5400        64
    14.5600        54
    14.5800        58
    14.6000        58
    14.6200        68
    14.6400        64
    14.6600        66
    14.6800        58
    14.7000        70
    14.7200        62
    14.7400        72
    14.7600        48
    14.7800        74
    14.8000        42
    14.8200        60
    14.8400        64
    14.8600        66
    14.8800        58
    14.9000        58
    14.9200        60
    14.9400        70
    14.9600        54
    14.9800        54
    15.0000        58
    15.0200        56
    15.0400        68
    15.0600        58
    15.0800        80
    15.1000        54
    15.1200        58
    15.1400        54
    15.1600        48
    15.1800        56
    15.2000        82
    15.2200        54
    15.2400        58
    15.2600        46
    15.2800        84
    15.3000        72
    15.3200        62
    15.3400        64
    15.3600        64
    15.3800        56
    15.4000        68
    15.4200        70
    15.4400        58
    15.4600        62
    15.4800        60
    15.5000        70
    15.5200        72
    15.5400        44
    15.5600        50
    15.5800        58
    15.6000        58
    15.6200        70
    15.6400        44
    15.6600        52
    15.6800        68
    15.7000        42
    15.7200        60
    15.7400        50
    15.7600        58
    15.7800        54
    15.8000        42
    15.8200        50
    15.8400        58
    15.8600        52
    15.8800        54
    15.9000        40
    15.9200        68
    15.9400        52
    15.9600        40
    15.9800        58
    16.0000        62
    16.0200        56
    16.0400        54
    16.0600        60
    16.0800        38
    16.1000        56
    16.1200        50
    16.1400        56
    16.1600        40
    16.1800        50
    16.2000        46
    16.2200        44
    16.2400        66
    16.2600        56
    16.2800        52
    16.3000        70
    16.3200        62
    16.3400        42
    16.3600        54
    16.3800        56
    16.4000        50
    16.4200        52
    16.4400        62
    16.4600        52
    16.4800        48
    16.5000        30
    16.5200        62
    16.5400        50
    16.5600        48
    16.5800        52
    16.6000        44
    16.6200        52
    16.6400        58
    16.6600        60
    16.6800        56
    16.7000        58
    16.7200        60
    16.7400        60
    16.7600        48
    16.7800        48
    16.8000        56
    16.8200        70
    16.8400        46
    16.8600        42
    16.8800        68
    16.9000        36
    16.9200        70
    16.9400        66
    16.9600        64
    16.9800        56
    17.0000        58
    17.0200        52
    17.0400        58
    17.0600        58
    17.0800        54
    17.1000        50
    17.1200        54
    17.1400        56
    17.1600        52
    17.1800        64
    17.2000        54
    17.2200        60
    17.2400        58
    17.2600        56
    17.2800        54
    17.3000        48
    17.3200        64
    17.3400        50
    17.3600        62
    17.3800        52
    17.4000        60
    17.4200        46
    17.4400        52
    17.4600        70
    17.4800        62
    17.5000        60
    17.5200        60
    17.5400        68
    17.5600        66
    17.5800        70
    17.6000        78
    17.6200        78
    17.6400        82
    17.6600        88
    17.6800        80
    17.7000        76
    17.7200        70
    17.7400        68
    17.7600        64
    17.7800        62
    17.8000        60
    17.8200        62
    17.8400        66
    17.8600        66
    17.8800        76
    17.9000        58
    17.9200        46
    17.9400        56
    17.9600        62
    17.9800        56
    18.0000        50
    18.0200        60
    18.0400        48
    18.0600        54
    18.0800        58
    18.1000        48
    18.1200        48
    18.1400        48
    18.1600        56
    18.1800        52
    18.2000        48
    18.2200        58
    18.2400        56
    18.2600        44
    18.2800        54
    18.3000        48
    18.3200        54
    18.3400        54
    18.3600        50
    18.3800        62
    18.4000        48
    18.4200        50
    18.4400        52
    18.4600        54
    18.4800        46
    18.5000        54
    18.5200        64
    18.5400        40
    18.5600        70
    18.5800        38
    18.6000        64
    18.6200        58
    18.6400        58
    18.6600        54
    18.6800        42
    18.7000        52
    18.7200        62
    18.7400        52
    18.7600        50
    18.7800        46
    18.8000        68
    18.8200        48
    18.8400        54
    18.8600        42
    18.8800        52
    18.9000        40
    18.9200        54
    18.9400        66
    18.9600        52
    18.9800        50
    19.0000        54
    19.0200        46
    19.0400        54
    19.0600        60
    19.0800        38
    19.1000        72
    19.1200        56
    19.1400        68
    19.1600        66
    19.1800        48
    19.2000        54
    19.2200        66
    19.2400        66
    19.2600        66
    19.2800        58
    19.3000        56
    19.3200        54
    19.3400        54
    19.3600        68
    19.3800        74
    19.4000        88
    19.4200        74
    19.4400        92
    19.4600        90
    19.4800        94
    19.5000       120
    19.5200       110
    19.5400       100
    19.5600       124
    19.5800       140
    19.6000       156
    19.6200       168
    19.6400       200
    19.6600       208
    19.6800       252
    19.7000       224
    19.7200       322
    19.7400       332
    19.7600       322
    19.7800       320
    19.8000       310
    19.8200       324
    19.8400       296
    19.8600       242
    19.8800       234
    19.9000       270
    19.9200       220
    19.9400       230
    19.9600       232
    19.9800       206
    20.0000       222
    20.0200       240
    20.0400       248
    20.0600       260
    20.0800       270
    20.1000       308
    20.1200       290
    20.1400       338
    20.1600       384
    20.1800       364
    20.2000       444
    20.2200       446
    20.2400       478
    20.2600       462
    20.2800       434
    20.3000       414
    20.3200       414
    20.3400       370
    20.3600       328
    20.3800       326
