/////////////////////////////////////////////////////////////////////////////////
/// Profile Data Ascii Dump (XRD)                                             ///
/////////////////////////////////////////////////////////////////////////////////

  Group     : Swayze
  Data      : RLO 2126
  File Name : RLO 2126.RAW

# Profile Datafile
          comment             =   
          date & time         = 08-03-11 08:09:36 

# Measurement Condition
    X-ray tube
          target              = Cu 
          voltage             = 40.0 (kV)
          current             = 30.0 (mA)
    Slits
          divergence slit     = 2.00000 (deg) 
          scatter slit        = 2.00000 (deg) 
          receiving slit      = 0.15000 (mm)  
    Scanning
          drive axis          = Theta-2Theta 
          scan range          =    4.000 -   65.000 
          scan mode           = Continuous Scan 
          scan speed          =   2.0000 (deg/min) 
          sampling pitch      =   0.0200 (deg) 
          preset time         =   0.60 (sec) 

# Data      [ Total No. = 3051 ]
  <2Theta>   <   I   >
     4.0000       212
     4.0200       216
     4.0400       216
     4.0600       226
     4.0800       208
     4.1000       200
     4.1200       210
     4.1400       184
     4.1600       190
     4.1800       216
     4.2000       212
     4.2200       236
     4.2400       212
     4.2600       200
     4.2800       184
     4.3000       188
     4.3200       192
     4.3400       184
     4.3600       192
     4.3800       192
     4.4000       190
     4.4200       178
     4.4400       188
     4.4600       188
     4.4800       176
     4.5000       196
     4.5200       196
     4.5400       192
     4.5600       162
     4.5800       206
     4.6000       174
     4.6200       202
     4.6400       164
     4.6600       188
     4.6800       170
     4.7000       174
     4.7200       176
     4.7400       182
     4.7600       160
     4.7800       214
     4.8000       188
     4.8200       174
     4.8400       180
     4.8600       212
     4.8800       176
     4.9000       182
     4.9200       174
     4.9400       174
     4.9600       180
     4.9800       178
     5.0000       194
     5.0200       206
     5.0400       144
     5.0600       160
     5.0800       172
     5.1000       174
     5.1200       160
     5.1400       196
     5.1600       150
     5.1800       170
     5.2000       164
     5.2200       178
     5.2400       176
     5.2600       170
     5.2800       158
     5.3000       170
     5.3200       162
     5.3400       148
     5.3600       186
     5.3800       184
     5.4000       168
     5.4200       174
     5.4400       170
     5.4600       136
     5.4800       146
     5.5000       190
     5.5200       190
     5.5400       156
     5.5600       200
     5.5800       184
     5.6000       176
     5.6200       184
     5.6400       144
     5.6600       160
     5.6800       174
     5.7000       178
     5.7200       156
     5.7400       182
     5.7600       176
     5.7800       148
     5.8000       158
     5.8200       154
     5.8400       160
     5.8600       166
     5.8800       158
     5.9000       194
     5.9200       192
     5.9400       140
     5.9600       168
     5.9800       160
     6.0000       158
     6.0200       168
     6.0400       164
     6.0600       148
     6.0800       184
     6.1000       144
     6.1200       160
     6.1400       170
     6.1600       146
     6.1800       180
     6.2000       166
     6.2200       190
     6.2400       152
     6.2600       136
     6.2800       162
     6.3000       154
     6.3200       148
     6.3400       154
     6.3600       152
     6.3800       164
     6.4000       176
     6.4200       148
     6.4400       144
     6.4600       130
     6.4800       160
     6.5000       160
     6.5200       146
     6.5400       132
     6.5600       156
     6.5800       138
     6.6000       150
     6.6200       144
     6.6400       146
     6.6600       120
     6.6800       124
     6.7000       134
     6.7200       144
     6.7400       168
     6.7600       134
     6.7800       144
     6.8000       120
     6.8200       124
     6.8400       118
     6.8600       132
     6.8800       124
     6.9000       138
     6.9200       118
     6.9400       134
     6.9600       152
     6.9800       124
     7.0000       152
     7.0200       144
     7.0400       124
     7.0600       146
     7.0800       122
     7.1000       118
     7.1200       158
     7.1400       130
     7.1600       108
     7.1800       132
     7.2000       162
     7.2200       124
     7.2400       118
     7.2600       122
     7.2800       130
     7.3000       110
     7.3200       132
     7.3400       132
     7.3600       126
     7.3800       138
     7.4000       144
     7.4200       122
     7.4400       124
     7.4600       134
     7.4800       114
     7.5000       108
     7.5200       114
     7.5400       112
     7.5600       104
     7.5800       128
     7.6000       126
     7.6200       120
     7.6400       130
     7.6600       120
     7.6800       132
     7.7000       130
     7.7200       124
     7.7400       138
     7.7600       136
     7.7800       130
     7.8000       134
     7.8200       140
     7.8400       132
     7.8600       124
     7.8800       120
     7.9000       134
     7.9200       142
     7.9400       138
     7.9600       140
     7.9800       130
     8.0000        94
     8.0200       118
     8.0400       128
     8.0600       140
     8.0800       132
     8.1000       126
     8.1200       140
     8.1400       132
     8.1600       132
     8.1800       150
     8.2000       142
     8.2200       142
     8.2400       168
     8.2600       150
     8.2800       142
     8.3000       136
     8.3200       156
     8.3400       152
     8.3600       166
     8.3800       158
     8.4000       146
     8.4200       150
     8.4400       152
     8.4600       154
     8.4800       146
     8.5000       134
     8.5200       156
     8.5400       184
     8.5600       146
     8.5800       164
     8.6000       178
     8.6200       196
     8.6400       212
     8.6600       198
     8.6800       222
     8.7000       242
     8.7200       272
     8.7400       276
     8.7600       320
     8.7800       372
     8.8000       384
     8.8200       344
     8.8400       296
     8.8600       272
     8.8800       244
     8.9000       186
     8.9200       178
     8.9400       150
     8.9600       134
     8.9800       150
     9.0000       128
     9.0200       122
     9.0400       122
     9.0600       118
     9.0800       120
     9.1000       132
     9.1200       126
     9.1400       140
     9.1600       142
     9.1800       108
     9.2000       118
     9.2200       114
     9.2400       112
     9.2600       124
     9.2800       124
     9.3000       120
     9.3200       114
     9.3400       112
     9.3600       130
     9.3800       136
     9.4000       114
     9.4200       118
     9.4400       124
     9.4600       112
     9.4800       116
     9.5000       110
     9.5200       132
     9.5400       106
     9.5600       128
     9.5800       104
     9.6000       104
     9.6200       120
     9.6400       126
     9.6600       134
     9.6800       124
     9.7000       124
     9.7200       104
     9.7400       118
     9.7600       108
     9.7800       126
     9.8000       124
     9.8200       114
     9.8400       106
     9.8600       112
     9.8800        88
     9.9000       110
     9.9200       104
     9.9400       108
     9.9600       110
     9.9800       114
    10.0000       112
    10.0200        92
    10.0400       122
    10.0600       120
    10.0800       104
    10.1000       102
    10.1200       108
    10.1400       108
    10.1600       112
    10.1800       104
    10.2000       122
    10.2200        94
    10.2400        86
    10.2600       106
    10.2800       104
    10.3000        98
    10.3200        90
    10.3400       106
    10.3600       100
    10.3800        94
    10.4000        96
    10.4200       100
    10.4400       104
    10.4600        92
    10.4800       116
    10.5000       104
    10.5200       102
    10.5400       128
    10.5600       118
    10.5800       106
    10.6000       108
    10.6200       122
    10.6400       112
    10.6600       102
    10.6800        98
    10.7000       104
    10.7200       100
    10.7400       122
    10.7600       118
    10.7800       126
    10.8000       118
    10.8200       102
    10.8400       100
    10.8600       116
    10.8800        94
    10.9000       134
    10.9200       120
    10.9400       124
    10.9600       108
    10.9800       126
    11.0000       114
    11.0200       110
    11.0400       120
    11.0600       126
    11.0800        96
    11.1000       118
    11.1200       114
    11.1400       122
    11.1600       126
    11.1800       136
    11.2000       120
    11.2200       122
    11.2400       142
    11.2600       128
    11.2800       122
    11.3000       100
    11.3200       120
    11.3400       110
    11.3600       122
    11.3800       118
    11.4000       114
    11.4200       124
    11.4400       116
    11.4600       118
    11.4800       118
    11.5000       120
    11.5200       140
    11.5400       160
    11.5600       152
    11.5800       150
    11.6000       172
    11.6200       166
    11.6400       182
    11.6600       184
    11.6800       198
    11.7000       212
    11.7200       236
    11.7400       224
    11.7600       236
    11.7800       258
    11.8000       282
    11.8200       312
    11.8400       302
    11.8600       322
    11.8800       378
    11.9000       442
    11.9200       478
    11.9400       504
    11.9600       608
    11.9800       652
    12.0000       696
    12.0200       786
    12.0400       816
    12.0600       934
    12.0800      1126
    12.1000      1144
    12.1200      1348
    12.1400      1568
    12.1600      1770
    12.1800      2138
    12.2000      2474
    12.2200      2728
    12.2400      3280
    12.2600      3898
    12.2800      4266
    12.3000      4338
    12.3200      4298
    12.3400      3856
    12.3600      3174
    12.3800      2332
    12.4000      1736
    12.4200      1320
    12.4400       894
    12.4600       676
    12.4800       546
    12.5000       412
    12.5200       352
    12.5400       278
    12.5600       270
    12.5800       240
    12.6000       210
    12.6200       186
    12.6400       214
    12.6600       160
    12.6800       160
    12.7000       144
    12.7200       160
    12.7400       116
    12.7600       110
    12.7800       108
    12.8000       124
    12.8200        92
    12.8400       116
    12.8600       108
    12.8800        88
    12.9000       124
    12.9200        96
    12.9400        80
    12.9600        82
    12.9800        94
    13.0000        86
    13.0200        86
    13.0400        94
    13.0600        82
    13.0800        74
    13.1000        72
    13.1200        94
    13.1400        84
    13.1600        80
    13.1800        78
    13.2000        82
    13.2200        78
    13.2400        76
    13.2600        68
    13.2800        84
    13.3000        60
    13.3200        88
    13.3400        70
    13.3600        66
    13.3800        78
    13.4000        76
    13.4200        64
    13.4400        62
    13.4600        62
    13.4800        80
    13.5000        74
    13.5200        80
    13.5400        82
    13.5600        68
    13.5800        68
    13.6000        66
    13.6200        66
    13.6400        82
    13.6600        62
    13.6800        72
    13.7000        74
    13.7200        74
    13.7400        72
    13.7600        50
    13.7800        56
    13.8000        58
    13.8200        72
    13.8400        72
    13.8600        62
    13.8800        74
    13.9000        60
    13.9200        64
    13.9400        96
    13.9600        74
    13.9800        68
    14.0000        48
    14.0200        64
    14.0400        54
    14.0600        64
    14.0800        54
    14.1000        62
    14.1200        74
    14.1400        70
    14.1600        66
    14.1800        72
    14.2000        68
    14.2200        66
    14.2400        66
    14.2600        66
    14.2800        54
    14.3000        58
    14.3200        60
    14.3400        64
    14.3600        62
    14.3800        64
    14.4000        66
    14.4200        60
    14.4400        62
    14.4600        50
    14.4800        60
    14.5000        54
    14.5200        68
    14.5400        72
    14.5600        50
    14.5800        58
    14.6000        56
    14.6200        64
    14.6400        64
    14.6600        58
    14.6800        72
    14.7000        56
    14.7200        56
    14.7400        56
    14.7600        46
    14.7800        52
    14.8000        62
    14.8200        54
    14.8400        48
    14.8600        62
    14.8800        66
    14.9000        64
    14.9200        72
    14.9400        56
    14.9600        62
    14.9800        56
    15.0000        58
    15.0200        46
    15.0400        70
    15.0600        62
    15.0800        70
    15.1000        72
    15.1200        64
    15.1400        46
    15.1600        62
    15.1800        58
    15.2000        76
    15.2200        56
    15.2400        66
    15.2600        64
    15.2800        54
    15.3000        62
    15.3200        68
    15.3400        58
    15.3600        78
    15.3800        62
    15.4000        72
    15.4200        68
    15.4400        64
    15.4600        52
    15.4800        52
    15.5000        64
    15.5200        62
    15.5400        48
    15.5600        76
    15.5800        58
    15.6000        54
    15.6200        58
    15.6400        62
    15.6600        64
    15.6800        52
    15.7000        54
    15.7200        52
    15.7400        44
    15.7600        54
    15.7800        48
    15.8000        62
    15.8200        70
    15.8400        62
    15.8600        42
    15.8800        52
    15.9000        48
    15.9200        48
    15.9400        62
    15.9600        60
    15.9800        62
    16.0000        48
    16.0200        66
    16.0400        46
    16.0600        48
    16.0800        54
    16.1000        58
    16.1200        54
    16.1400        54
    16.1600        40
    16.1800        56
    16.2000        56
    16.2200        48
    16.2400        54
    16.2600        52
    16.2800        78
    16.3000        58
    16.3200        56
    16.3400        56
    16.3600        48
    16.3800        52
    16.4000        56
    16.4200        62
    16.4400        66
    16.4600        58
    16.4800        54
    16.5000        52
    16.5200        52
    16.5400        58
    16.5600        58
    16.5800        66
    16.6000        56
    16.6200        44
    16.6400        42
    16.6600        54
    16.6800        52
    16.7000        46
    16.7200        56
    16.7400        60
    16.7600        52
    16.7800        46
    16.8000        44
    16.8200        64
    16.8400        56
    16.8600        70
    16.8800        68
    16.9000        44
    16.9200        50
    16.9400        56
    16.9600        60
    16.9800        58
    17.0000        66
    17.0200        46
    17.0400        68
    17.0600        60
    17.0800        60
    17.1000        72
    17.1200        52
    17.1400        52
    17.1600        50
    17.1800        66
    17.2000        64
    17.2200        58
    17.2400        58
    17.2600        64
    17.2800        64
    17.3000        54
    17.3200        70
    17.3400        68
    17.3600        62
    17.3800        58
    17.4000        52
    17.4200        58
    17.4400        72
    17.4600        74
    17.4800        94
    17.5000        78
    17.5200        92
    17.5400        80
    17.5600        98
    17.5800       110
    17.6000       108
    17.6200       122
    17.6400       136
    17.6600       170
    17.6800       134
    17.7000       156
    17.7200       170
    17.7400       156
    17.7600       122
    17.7800        96
    17.8000        96
    17.8200        94
    17.8400        82
    17.8600        84
    17.8800        62
    17.9000        70
    17.9200        66
    17.9400        58
    17.9600        52
    17.9800        48
    18.0000        68
    18.0200        58
    18.0400        54
    18.0600        58
    18.0800        50
    18.1000        72
    18.1200        62
    18.1400        66
    18.1600        46
    18.1800        46
    18.2000        50
    18.2200        78
    18.2400        62
    18.2600        54
    18.2800        54
    18.3000        38
    18.3200        58
    18.3400        48
    18.3600        46
    18.3800        64
    18.4000        58
    18.4200        50
    18.4400        52
    18.4600        50
    18.4800        66
    18.5000        44
    18.5200        52
    18.5400        50
    18.5600        66
    18.5800        74
    18.6000        48
    18.6200        52
    18.6400        58
    18.6600        54
    18.6800        52
    18.7000        46
    18.7200        54
    18.7400        52
    18.7600        62
    18.7800        60
    18.8000        52
    18.8200        46
    18.8400        68
    18.8600        50
    18.8800        64
    18.9000        36
    18.9200        52
    18.9400        50
    18.9600        50
    18.9800        56
    19.0000        62
    19.0200        46
    19.0400        48
    19.0600        62
    19.0800        52
    19.1000        56
    19.1200        66
    19.1400        50
    19.1600        52
    19.1800        50
    19.2000        70
    19.2200        48
    19.2400        52
    19.2600        58
    19.2800        60
    19.3000        66
    19.3200        52
    19.3400        80
    19.3600        66
    19.3800        64
    19.4000        58
    19.4200        62
    19.4400        60
    19.4600        86
    19.4800        74
    19.5000        78
    19.5200        76
    19.5400        84
    19.5600        90
    19.5800        90
    19.6000       110
    19.6200       148
    19.6400       130
    19.6600       150
    19.6800       168
    19.7000       198
    19.7200       224
    19.7400       220
    19.7600       236
    19.7800       224
    19.8000       254
    19.8200       258
    19.8400       242
    19.8600       236
    19.8800       214
    19.9000       214
    19.9200       192
    19.9400       154
    19.9600       176
    19.9800       174
    20.0000       156
    20.0200       170
    20.0400       170
    20.0600       174
    20.0800       174
    20.1000       200
    20.1200       214
    20.1400       232
    20.1600       240
    20.1800       240
    20.2000       304
    20.2200       326
    20.2400       310
    20.2600       310
    20.2800       342
    20.3000       324
    20.3200       284
    20.3400       280
    20.3600       250
    20.3800       254
