/////////////////////////////////////////////////////////////////////////////////
/// Profile Data Ascii Dump (XRD)                                             ///
/////////////////////////////////////////////////////////////////////////////////

  Group     : Swayze
  Data      : SBS-03-1
  File Name : SBS-03-1.RAW

# Profile Datafile
          comment             = Opal-A 
          date & time         = 08-03-12 07:00:21 

# Measurement Condition
    X-ray tube
          target              = Cu 
          voltage             = 40.0 (kV)
          current             = 30.0 (mA)
    Slits
          divergence slit     = 2.00000 (deg) 
          scatter slit        = 2.00000 (deg) 
          receiving slit      = 0.15000 (mm)  
    Scanning
          drive axis          = Theta-2Theta 
          scan range          =    4.000 -   65.000 
          scan mode           = Continuous Scan 
          scan speed          =   2.0000 (deg/min) 
          sampling pitch      =   0.0200 (deg) 
          preset time         =   0.60 (sec) 

# Data      [ Total No. = 3051 ]
  <2Theta>   <   I   >
     4.0000       226
     4.0200       214
     4.0400       208
     4.0600       230
     4.0800       232
     4.1000       222
     4.1200       206
     4.1400       222
     4.1600       202
     4.1800       230
     4.2000       208
     4.2200       210
     4.2400       218
     4.2600       234
     4.2800       208
     4.3000       182
     4.3200       216
     4.3400       206
     4.3600       214
     4.3800       202
     4.4000       202
     4.4200       216
     4.4400       182
     4.4600       212
     4.4800       212
     4.5000       204
     4.5200       180
     4.5400       204
     4.5600       186
     4.5800       166
     4.6000       184
     4.6200       200
     4.6400       202
     4.6600       170
     4.6800       198
     4.7000       184
     4.7200       182
     4.7400       148
     4.7600       188
     4.7800       196
     4.8000       178
     4.8200       204
     4.8400       216
     4.8600       184
     4.8800       174
     4.9000       202
     4.9200       180
     4.9400       194
     4.9600       190
     4.9800       188
     5.0000       176
     5.0200       202
     5.0400       200
     5.0600       190
     5.0800       174
     5.1000       182
     5.1200       190
     5.1400       194
     5.1600       190
     5.1800       192
     5.2000       178
     5.2200       190
     5.2400       208
     5.2600       176
     5.2800       156
     5.3000       178
     5.3200       196
     5.3400       194
     5.3600       206
     5.3800       160
     5.4000       194
     5.4200       194
     5.4400       188
     5.4600       200
     5.4800       196
     5.5000       192
     5.5200       160
     5.5400       192
     5.5600       158
     5.5800       170
     5.6000       168
     5.6200       186
     5.6400       192
     5.6600       190
     5.6800       176
     5.7000       156
     5.7200       220
     5.7400       204
     5.7600       188
     5.7800       182
     5.8000       192
     5.8200       172
     5.8400       172
     5.8600       182
     5.8800       172
     5.9000       164
     5.9200       170
     5.9400       210
     5.9600       176
     5.9800       192
     6.0000       190
     6.0200       172
     6.0400       176
     6.0600       166
     6.0800       166
     6.1000       164
     6.1200       170
     6.1400       172
     6.1600       162
     6.1800       162
     6.2000       158
     6.2200       164
     6.2400       160
     6.2600       182
     6.2800       168
     6.3000       154
     6.3200       162
     6.3400       184
     6.3600       152
     6.3800       158
     6.4000       162
     6.4200       158
     6.4400       164
     6.4600       148
     6.4800       140
     6.5000       174
     6.5200       166
     6.5400       176
     6.5600       180
     6.5800       156
     6.6000       144
     6.6200       174
     6.6400       166
     6.6600       156
     6.6800       166
     6.7000       144
     6.7200       170
     6.7400       170
     6.7600       168
     6.7800       150
     6.8000       152
     6.8200       142
     6.8400       134
     6.8600       162
     6.8800       164
     6.9000       146
     6.9200       140
     6.9400       160
     6.9600       160
     6.9800       154
     7.0000       178
     7.0200       148
     7.0400       144
     7.0600       144
     7.0800       126
     7.1000       174
     7.1200       156
     7.1400       148
     7.1600       142
     7.1800       128
     7.2000       162
     7.2200       148
     7.2400       164
     7.2600       158
     7.2800       118
     7.3000       148
     7.3200       126
     7.3400       154
     7.3600       150
     7.3800       134
     7.4000       136
     7.4200       120
     7.4400       142
     7.4600       146
     7.4800       130
     7.5000       136
     7.5200       142
     7.5400       130
     7.5600       136
     7.5800       136
     7.6000       150
     7.6200       118
     7.6400       146
     7.6600       142
     7.6800       130
     7.7000       136
     7.7200       128
     7.7400       160
     7.7600       126
     7.7800       130
     7.8000       118
     7.8200       130
     7.8400       126
     7.8600       142
     7.8800       128
     7.9000       134
     7.9200       166
     7.9400       128
     7.9600       150
     7.9800       142
     8.0000       132
     8.0200       116
     8.0400       148
     8.0600       144
     8.0800       150
     8.1000       142
     8.1200       152
     8.1400       140
     8.1600       162
     8.1800       144
     8.2000       148
     8.2200       144
     8.2400       152
     8.2600       132
     8.2800       134
     8.3000       142
     8.3200       144
     8.3400       128
     8.3600       146
     8.3800       142
     8.4000       152
     8.4200       150
     8.4400       136
     8.4600       144
     8.4800       112
     8.5000       132
     8.5200       140
     8.5400       156
     8.5600       144
     8.5800       142
     8.6000       126
     8.6200       176
     8.6400       152
     8.6600       140
     8.6800       166
     8.7000       146
     8.7200       152
     8.7400       142
     8.7600       148
     8.7800       144
     8.8000       128
     8.8200       152
     8.8400       146
     8.8600       152
     8.8800       148
     8.9000       154
     8.9200       122
     8.9400       158
     8.9600       136
     8.9800       150
     9.0000       128
     9.0200       122
     9.0400       138
     9.0600       152
     9.0800       144
     9.1000       132
     9.1200       152
     9.1400       138
     9.1600       126
     9.1800       148
     9.2000       162
     9.2200       128
     9.2400       130
     9.2600       156
     9.2800       126
     9.3000       112
     9.3200       136
     9.3400       142
     9.3600       142
     9.3800       138
     9.4000       130
     9.4200       152
     9.4400       144
     9.4600       144
     9.4800       140
     9.5000       156
     9.5200       130
     9.5400       154
     9.5600       136
     9.5800       134
     9.6000       120
     9.6200       116
     9.6400       134
     9.6600       134
     9.6800       124
     9.7000       146
     9.7200       146
     9.7400       136
     9.7600       138
     9.7800       130
     9.8000       124
     9.8200       146
     9.8400       112
     9.8600       124
     9.8800       134
     9.9000       134
     9.9200       132
     9.9400       126
     9.9600       124
     9.9800       128
    10.0000       120
    10.0200       110
    10.0400       130
    10.0600       120
    10.0800       134
    10.1000       118
    10.1200       142
    10.1400       144
    10.1600       146
    10.1800       114
    10.2000       126
    10.2200       130
    10.2400       134
    10.2600       124
    10.2800       100
    10.3000       138
    10.3200       144
    10.3400       124
    10.3600       124
    10.3800       136
    10.4000       114
    10.4200       122
    10.4400       130
    10.4600       128
    10.4800       150
    10.5000       124
    10.5200       134
    10.5400       136
    10.5600       112
    10.5800       128
    10.6000       128
    10.6200       118
    10.6400       132
    10.6600       116
    10.6800       134
    10.7000       136
    10.7200       124
    10.7400       118
    10.7600       142
    10.7800       140
    10.8000       124
    10.8200       106
    10.8400       122
    10.8600       108
    10.8800       120
    10.9000       124
    10.9200       126
    10.9400       136
    10.9600       108
    10.9800       120
    11.0000       132
    11.0200       104
    11.0400       128
    11.0600       120
    11.0800       106
    11.1000       146
    11.1200       128
    11.1400       128
    11.1600       128
    11.1800       110
    11.2000       114
    11.2200       116
    11.2400       136
    11.2600       120
    11.2800       114
    11.3000       118
    11.3200       112
    11.3400       132
    11.3600       108
    11.3800       130
    11.4000       144
    11.4200       104
    11.4400       124
    11.4600       132
    11.4800       116
    11.5000       110
    11.5200       124
    11.5400        98
    11.5600       100
    11.5800       116
    11.6000       108
    11.6200       110
    11.6400       116
    11.6600       116
    11.6800       116
    11.7000       102
    11.7200       106
    11.7400        96
    11.7600       108
    11.7800       120
    11.8000        96
    11.8200       106
    11.8400       106
    11.8600       108
    11.8800       102
    11.9000       110
    11.9200       110
    11.9400       122
    11.9600       118
    11.9800       108
    12.0000       112
    12.0200       100
    12.0400       134
    12.0600       108
    12.0800       104
    12.1000       102
    12.1200       104
    12.1400       106
    12.1600       114
    12.1800       120
    12.2000       110
    12.2200       110
    12.2400       128
    12.2600       130
    12.2800       112
    12.3000       102
    12.3200       118
    12.3400       106
    12.3600       118
    12.3800       116
    12.4000       124
    12.4200       106
    12.4400       106
    12.4600        96
    12.4800       108
    12.5000       118
    12.5200       110
    12.5400       104
    12.5600       100
    12.5800       106
    12.6000       108
    12.6200       116
    12.6400       104
    12.6600       118
    12.6800       110
    12.7000        92
    12.7200       112
    12.7400       114
    12.7600        96
    12.7800        90
    12.8000       102
    12.8200       110
    12.8400       106
    12.8600       116
    12.8800       104
    12.9000       108
    12.9200       126
    12.9400       110
    12.9600       104
    12.9800       118
    13.0000       104
    13.0200        94
    13.0400       106
    13.0600       100
    13.0800       114
    13.1000        90
    13.1200       112
    13.1400       118
    13.1600       112
    13.1800       104
    13.2000        98
    13.2200        98
    13.2400        90
    13.2600       128
    13.2800        88
    13.3000        94
    13.3200       126
    13.3400        92
    13.3600       120
    13.3800       112
    13.4000       118
    13.4200        92
    13.4400       110
    13.4600       104
    13.4800       110
    13.5000       110
    13.5200       106
    13.5400       106
    13.5600       110
    13.5800       108
    13.6000       110
    13.6200       132
    13.6400        94
    13.6600       108
    13.6800        98
    13.7000       108
    13.7200       122
    13.7400       110
    13.7600       110
    13.7800       106
    13.8000       130
    13.8200       126
    13.8400       124
    13.8600       132
    13.8800       120
    13.9000       108
    13.9200        80
    13.9400        88
    13.9600       106
    13.9800       116
    14.0000       100
    14.0200       108
    14.0400       100
    14.0600        96
    14.0800       122
    14.1000        84
    14.1200        90
    14.1400        98
    14.1600       118
    14.1800        94
    14.2000       106
    14.2200       104
    14.2400        96
    14.2600       122
    14.2800       104
    14.3000       110
    14.3200        94
    14.3400       106
    14.3600       104
    14.3800       116
    14.4000       100
    14.4200       112
    14.4400        98
    14.4600       100
    14.4800       108
    14.5000        96
    14.5200       116
    14.5400       106
    14.5600        96
    14.5800       100
    14.6000       106
    14.6200        84
    14.6400       130
    14.6600       118
    14.6800       108
    14.7000       120
    14.7200       134
    14.7400       128
    14.7600        96
    14.7800       102
    14.8000       114
    14.8200       102
    14.8400       118
    14.8600       122
    14.8800       108
    14.9000        90
    14.9200       108
    14.9400       114
    14.9600       116
    14.9800       116
    15.0000       118
    15.0200       104
    15.0400       114
    15.0600       100
    15.0800       102
    15.1000        98
    15.1200       134
    15.1400       108
    15.1600       110
    15.1800       112
    15.2000       118
    15.2200       108
    15.2400       114
    15.2600       104
    15.2800       112
    15.3000       112
    15.3200       114
    15.3400       104
    15.3600       116
    15.3800       136
    15.4000        98
    15.4200       120
    15.4400       124
    15.4600       110
    15.4800       114
    15.5000       130
    15.5200        96
    15.5400       114
    15.5600       120
    15.5800        96
    15.6000       118
    15.6200       102
    15.6400       120
    15.6600       114
    15.6800       122
    15.7000       132
    15.7200       114
    15.7400       126
    15.7600       130
    15.7800       106
    15.8000       120
    15.8200       114
    15.8400       126
    15.8600       106
    15.8800       118
    15.9000       110
    15.9200       128
    15.9400       124
    15.9600       120
    15.9800       116
    16.0000       116
    16.0200       118
    16.0400       100
    16.0600       130
    16.0800       130
    16.1000       120
    16.1200       122
    16.1400       116
    16.1600       128
    16.1800       120
    16.2000       126
    16.2200       104
    16.2400       110
    16.2600       102
    16.2800       118
    16.3000       120
    16.3200       108
    16.3400       124
    16.3600       108
    16.3800       136
    16.4000       132
    16.4200       142
    16.4400       138
    16.4600       156
    16.4800       126
    16.5000       128
    16.5200       118
    16.5400       146
    16.5600       132
    16.5800       124
    16.6000       120
    16.6200       150
    16.6400       106
    16.6600       140
    16.6800       128
    16.7000       130
    16.7200       148
    16.7400       138
    16.7600       130
    16.7800       128
    16.8000       122
    16.8200       118
    16.8400       138
    16.8600       136
    16.8800       136
    16.9000       142
    16.9200       134
    16.9400       134
    16.9600       144
    16.9800       114
    17.0000       120
    17.0200       144
    17.0400       136
    17.0600       146
    17.0800       130
    17.1000       140
    17.1200       124
    17.1400       136
    17.1600       108
    17.1800       152
    17.2000       134
    17.2200       140
    17.2400       130
    17.2600       160
    17.2800       146
    17.3000       138
    17.3200       172
    17.3400       160
    17.3600       164
    17.3800       136
    17.4000       160
    17.4200       168
    17.4400       144
    17.4600       136
    17.4800       146
    17.5000       134
    17.5200       140
    17.5400       138
    17.5600       140
    17.5800       156
    17.6000       168
    17.6200       160
    17.6400       130
    17.6600       180
    17.6800       154
    17.7000       156
    17.7200       114
    17.7400       136
    17.7600       144
    17.7800       154
    17.8000       174
    17.8200       154
    17.8400       170
    17.8600       176
    17.8800       164
    17.9000       136
    17.9200       172
    17.9400       166
    17.9600       134
    17.9800       172
    18.0000       184
    18.0200       156
    18.0400       162
    18.0600       166
    18.0800       178
    18.1000       172
    18.1200       146
    18.1400       186
    18.1600       186
    18.1800       154
    18.2000       176
    18.2200       160
    18.2400       174
    18.2600       164
    18.2800       166
    18.3000       182
    18.3200       142
    18.3400       180
    18.3600       166
    18.3800       182
    18.4000       202
    18.4200       192
    18.4400       212
    18.4600       206
    18.4800       194
    18.5000       182
    18.5200       170
    18.5400       188
    18.5600       190
    18.5800       198
    18.6000       152
    18.6200       206
    18.6400       196
    18.6600       152
    18.6800       172
    18.7000       216
    18.7200       188
    18.7400       188
    18.7600       188
    18.7800       184
    18.8000       192
    18.8200       178
    18.8400       200
    18.8600       202
    18.8800       196
    18.9000       198
    18.9200       192
    18.9400       198
    18.9600       202
    18.9800       190
    19.0000       204
    19.0200       190
    19.0400       212
    19.0600       220
    19.0800       220
    19.1000       226
    19.1200       206
    19.1400       186
    19.1600       210
    19.1800       202
    19.2000       220
    19.2200       194
    19.2400       212
    19.2600       204
    19.2800       204
    19.3000       216
    19.3200       216
    19.3400       208
    19.3600       228
    19.3800       206
    19.4000       216
    19.4200       218
    19.4400       220
    19.4600       230
    19.4800       222
    19.5000       212
    19.5200       214
    19.5400       250
    19.5600       226
    19.5800       258
    19.6000       220
    19.6200       224
    19.6400       210
    19.6600       230
    19.6800       244
    19.7000       234
    19.7200       266
    19.7400       232
    19.7600       236
    19.7800       254
    19.8000       242
    19.8200       220
    19.8400       270
    19.8600       246
    19.8800       246
    19.9000       234
    19.9200       218
    19.9400       218
    19.9600       234
    19.9800       248
    20.0000       262
    20.0200       228
    20.0400       270
    20.0600       240
    20.0800       266
    20.1000       262
    20.1200       264
    20.1400       282
    20.1600       266
    20.1800       268
    20.2000       272
    20.2200       254
    20.2400       248
    20.2600       260
    20.2800       268
    20.3000       234
    20.3200       266
    20.3400       286
    20.3600       262
    20.3800       320
