/////////////////////////////////////////////////////////////////////////////////
/// Profile Data Ascii Dump (XRD)                                             ///
/////////////////////////////////////////////////////////////////////////////////

  Group     : Swayze
  Data      : TwinLake 7-2001
  File Name : TwinLake 7-2001.RAW

# Profile Datafile
          comment             = Halloysite 
          date & time         = 08-02-28 06:55:28 

# Measurement Condition
    X-ray tube
          target              = Cu 
          voltage             = 40.0 (kV)
          current             = 30.0 (mA)
    Slits
          divergence slit     = 2.00000 (deg) 
          scatter slit        = 2.00000 (deg) 
          receiving slit      = 0.15000 (mm)  
    Scanning
          drive axis          = Theta-2Theta 
          scan range          =    4.000 -   65.000 
          scan mode           = Continuous Scan 
          scan speed          =   2.0000 (deg/min) 
          sampling pitch      =   0.0200 (deg) 
          preset time         =   0.60 (sec) 

# Data      [ Total No. = 3051 ]
  <2Theta>   <   I   >
     4.0000       208
     4.0200       220
     4.0400       198
     4.0600       218
     4.0800       222
     4.1000       232
     4.1200       212
     4.1400       202
     4.1600       206
     4.1800       204
     4.2000       200
     4.2200       198
     4.2400       214
     4.2600       198
     4.2800       196
     4.3000       212
     4.3200       188
     4.3400       226
     4.3600       196
     4.3800       184
     4.4000       222
     4.4200       182
     4.4400       212
     4.4600       164
     4.4800       180
     4.5000       182
     4.5200       186
     4.5400       190
     4.5600       182
     4.5800       186
     4.6000       204
     4.6200       198
     4.6400       192
     4.6600       198
     4.6800       190
     4.7000       196
     4.7200       170
     4.7400       174
     4.7600       186
     4.7800       204
     4.8000       182
     4.8200       170
     4.8400       196
     4.8600       176
     4.8800       186
     4.9000       190
     4.9200       162
     4.9400       186
     4.9600       194
     4.9800       196
     5.0000       182
     5.0200       186
     5.0400       190
     5.0600       166
     5.0800       186
     5.1000       184
     5.1200       190
     5.1400       180
     5.1600       182
     5.1800       170
     5.2000       180
     5.2200       192
     5.2400       174
     5.2600       196
     5.2800       212
     5.3000       194
     5.3200       198
     5.3400       206
     5.3600       166
     5.3800       170
     5.4000       170
     5.4200       188
     5.4400       194
     5.4600       170
     5.4800       176
     5.5000       166
     5.5200       182
     5.5400       192
     5.5600       198
     5.5800       168
     5.6000       180
     5.6200       184
     5.6400       184
     5.6600       186
     5.6800       164
     5.7000       162
     5.7200       182
     5.7400       188
     5.7600       204
     5.7800       166
     5.8000       176
     5.8200       186
     5.8400       184
     5.8600       178
     5.8800       184
     5.9000       182
     5.9200       148
     5.9400       208
     5.9600       174
     5.9800       162
     6.0000       200
     6.0200       182
     6.0400       176
     6.0600       172
     6.0800       140
     6.1000       186
     6.1200       164
     6.1400       160
     6.1600       168
     6.1800       190
     6.2000       172
     6.2200       166
     6.2400       178
     6.2600       172
     6.2800       164
     6.3000       160
     6.3200       180
     6.3400       168
     6.3600       158
     6.3800       152
     6.4000       162
     6.4200       168
     6.4400       176
     6.4600       156
     6.4800       162
     6.5000       158
     6.5200       152
     6.5400       134
     6.5600       122
     6.5800       160
     6.6000       178
     6.6200       154
     6.6400       158
     6.6600       134
     6.6800       140
     6.7000       154
     6.7200       138
     6.7400       158
     6.7600       156
     6.7800       136
     6.8000       148
     6.8200       136
     6.8400       144
     6.8600       158
     6.8800       144
     6.9000       144
     6.9200       134
     6.9400       132
     6.9600       144
     6.9800       154
     7.0000       134
     7.0200       132
     7.0400       130
     7.0600       124
     7.0800       138
     7.1000       130
     7.1200       144
     7.1400       124
     7.1600       152
     7.1800       136
     7.2000       132
     7.2200       122
     7.2400       150
     7.2600       154
     7.2800       134
     7.3000       138
     7.3200       140
     7.3400       132
     7.3600       126
     7.3800       138
     7.4000       148
     7.4200       138
     7.4400       126
     7.4600       138
     7.4800       112
     7.5000       140
     7.5200       150
     7.5400       132
     7.5600       124
     7.5800       128
     7.6000       126
     7.6200       118
     7.6400       124
     7.6600       138
     7.6800       148
     7.7000       134
     7.7200       148
     7.7400       134
     7.7600       136
     7.7800       126
     7.8000       134
     7.8200       122
     7.8400       138
     7.8600       128
     7.8800       144
     7.9000       142
     7.9200       128
     7.9400       104
     7.9600       126
     7.9800       126
     8.0000       114
     8.0200       134
     8.0400       114
     8.0600       124
     8.0800       114
     8.1000       110
     8.1200       124
     8.1400       114
     8.1600       110
     8.1800       136
     8.2000        96
     8.2200       142
     8.2400       110
     8.2600       130
     8.2800       150
     8.3000       126
     8.3200       146
     8.3400       130
     8.3600       146
     8.3800       122
     8.4000       138
     8.4200       150
     8.4400       132
     8.4600       128
     8.4800       148
     8.5000       144
     8.5200       108
     8.5400       128
     8.5600       126
     8.5800       142
     8.6000       138
     8.6200       146
     8.6400       130
     8.6600       142
     8.6800       138
     8.7000       134
     8.7200       122
     8.7400       120
     8.7600       136
     8.7800       118
     8.8000       126
     8.8200       128
     8.8400       118
     8.8600       108
     8.8800       126
     8.9000       140
     8.9200       126
     8.9400       130
     8.9600       130
     8.9800       138
     9.0000       150
     9.0200       140
     9.0400       132
     9.0600       138
     9.0800       138
     9.1000       122
     9.1200       122
     9.1400       130
     9.1600       156
     9.1800       128
     9.2000       124
     9.2200       118
     9.2400       126
     9.2600       128
     9.2800       114
     9.3000       138
     9.3200       138
     9.3400       128
     9.3600       146
     9.3800       124
     9.4000       132
     9.4200       136
     9.4400       110
     9.4600       130
     9.4800       146
     9.5000       130
     9.5200       146
     9.5400       142
     9.5600       122
     9.5800       104
     9.6000       128
     9.6200       128
     9.6400       130
     9.6600       120
     9.6800       130
     9.7000       124
     9.7200       130
     9.7400       122
     9.7600       120
     9.7800       134
     9.8000       136
     9.8200       130
     9.8400       152
     9.8600       128
     9.8800       122
     9.9000       142
     9.9200       130
     9.9400       154
     9.9600       100
     9.9800       114
    10.0000       128
    10.0200       132
    10.0400       128
    10.0600       130
    10.0800       104
    10.1000       130
    10.1200       124
    10.1400       138
    10.1600       124
    10.1800       104
    10.2000       120
    10.2200       120
    10.2400       138
    10.2600       122
    10.2800       112
    10.3000        98
    10.3200       124
    10.3400       132
    10.3600       142
    10.3800       126
    10.4000       118
    10.4200       130
    10.4400       132
    10.4600       122
    10.4800       136
    10.5000       122
    10.5200       124
    10.5400       110
    10.5600       136
    10.5800       116
    10.6000       150
    10.6200       132
    10.6400       148
    10.6600       128
    10.6800       136
    10.7000       132
    10.7200       152
    10.7400       144
    10.7600       124
    10.7800       134
    10.8000       122
    10.8200       134
    10.8400       130
    10.8600       130
    10.8800       136
    10.9000       134
    10.9200       114
    10.9400       142
    10.9600       126
    10.9800       132
    11.0000       128
    11.0200       114
    11.0400       146
    11.0600       122
    11.0800       116
    11.1000       146
    11.1200       162
    11.1400       156
    11.1600       162
    11.1800       152
    11.2000       142
    11.2200       176
    11.2400       162
    11.2600       154
    11.2800       164
    11.3000       150
    11.3200       166
    11.3400       178
    11.3600       174
    11.3800       174
    11.4000       160
    11.4200       178
    11.4400       190
    11.4600       172
    11.4800       182
    11.5000       196
    11.5200       188
    11.5400       188
    11.5600       198
    11.5800       196
    11.6000       200
    11.6200       210
    11.6400       196
    11.6600       202
    11.6800       198
    11.7000       206
    11.7200       216
    11.7400       214
    11.7600       232
    11.7800       230
    11.8000       226
    11.8200       212
    11.8400       236
    11.8600       240
    11.8800       218
    11.9000       220
    11.9200       238
    11.9400       198
    11.9600       186
    11.9800       198
    12.0000       188
    12.0200       212
    12.0400       208
    12.0600       178
    12.0800       180
    12.1000       192
    12.1200       176
    12.1400       186
    12.1600       202
    12.1800       182
    12.2000       172
    12.2200       158
    12.2400       168
    12.2600       152
    12.2800       148
    12.3000       154
    12.3200       154
    12.3400       142
    12.3600       176
    12.3800       148
    12.4000       118
    12.4200       128
    12.4400       150
    12.4600       120
    12.4800       116
    12.5000       130
    12.5200       114
    12.5400       120
    12.5600       100
    12.5800       114
    12.6000        98
    12.6200       106
    12.6400       108
    12.6600       100
    12.6800        84
    12.7000       124
    12.7200       108
    12.7400       102
    12.7600       112
    12.7800        98
    12.8000       104
    12.8200        90
    12.8400        90
    12.8600        90
    12.8800       106
    12.9000        96
    12.9200       102
    12.9400        82
    12.9600        94
    12.9800        72
    13.0000        88
    13.0200       104
    13.0400        98
    13.0600        96
    13.0800       102
    13.1000        80
    13.1200        80
    13.1400        94
    13.1600        92
    13.1800        76
    13.2000        84
    13.2200       102
    13.2400        88
    13.2600        80
    13.2800        90
    13.3000        88
    13.3200        80
    13.3400        88
    13.3600       102
    13.3800        80
    13.4000        84
    13.4200        88
    13.4400        78
    13.4600        84
    13.4800        92
    13.5000        68
    13.5200        74
    13.5400        92
    13.5600        90
    13.5800        70
    13.6000        66
    13.6200        76
    13.6400        70
    13.6600        98
    13.6800        70
    13.7000        84
    13.7200        64
    13.7400        98
    13.7600        64
    13.7800        76
    13.8000        84
    13.8200        84
    13.8400        78
    13.8600        80
    13.8800        96
    13.9000        80
    13.9200        64
    13.9400        84
    13.9600        82
    13.9800        76
    14.0000        58
    14.0200        84
    14.0400        64
    14.0600        76
    14.0800        82
    14.1000        92
    14.1200        84
    14.1400        72
    14.1600        66
    14.1800        84
    14.2000        68
    14.2200        72
    14.2400        76
    14.2600        74
    14.2800        72
    14.3000        84
    14.3200        72
    14.3400        70
    14.3600        76
    14.3800        66
    14.4000        72
    14.4200        70
    14.4400        68
    14.4600        80
    14.4800        82
    14.5000        58
    14.5200        90
    14.5400        62
    14.5600        72
    14.5800        64
    14.6000        64
    14.6200        86
    14.6400       102
    14.6600        86
    14.6800        78
    14.7000        74
    14.7200        92
    14.7400        76
    14.7600        80
    14.7800        96
    14.8000        90
    14.8200       102
    14.8400       100
    14.8600       108
    14.8800       124
    14.9000       148
    14.9200       126
    14.9400       140
    14.9600       128
    14.9800       124
    15.0000       116
    15.0200        86
    15.0400        96
    15.0600        88
    15.0800        72
    15.1000        86
    15.1200        90
    15.1400        68
    15.1600        86
    15.1800        74
    15.2000        84
    15.2200       118
    15.2400        80
    15.2600        98
    15.2800       112
    15.3000       106
    15.3200       118
    15.3400       114
    15.3600       114
    15.3800       100
    15.4000        98
    15.4200        98
    15.4400        88
    15.4600        76
    15.4800        60
    15.5000        76
    15.5200        70
    15.5400        60
    15.5600        70
    15.5800        78
    15.6000        56
    15.6200        66
    15.6400        66
    15.6600        64
    15.6800        60
    15.7000        72
    15.7200        54
    15.7400        50
    15.7600        66
    15.7800        80
    15.8000        68
    15.8200        54
    15.8400        80
    15.8600        56
    15.8800        60
    15.9000        76
    15.9200        64
    15.9400        70
    15.9600        68
    15.9800        70
    16.0000        60
    16.0200        60
    16.0400        82
    16.0600        56
    16.0800        60
    16.1000        64
    16.1200        42
    16.1400        66
    16.1600        46
    16.1800        76
    16.2000        66
    16.2200        64
    16.2400        50
    16.2600        84
    16.2800        64
    16.3000        70
    16.3200        68
    16.3400        60
    16.3600        36
    16.3800        64
    16.4000        60
    16.4200        68
    16.4400        62
    16.4600        62
    16.4800        64
    16.5000        50
    16.5200        64
    16.5400        60
    16.5600        70
    16.5800        52
    16.6000        64
    16.6200        54
    16.6400        52
    16.6600        46
    16.6800        66
    16.7000        62
    16.7200        44
    16.7400        76
    16.7600        64
    16.7800        44
    16.8000        52
    16.8200        72
    16.8400        58
    16.8600        60
    16.8800        64
    16.9000        64
    16.9200        58
    16.9400        80
    16.9600        82
    16.9800        58
    17.0000        80
    17.0200        66
    17.0400        70
    17.0600        78
    17.0800        70
    17.1000        84
    17.1200        62
    17.1400        76
    17.1600        86
    17.1800       100
    17.2000       102
    17.2200       116
    17.2400       112
    17.2600       146
    17.2800       150
    17.3000       156
    17.3200       178
    17.3400       210
    17.3600       202
    17.3800       210
    17.4000       182
    17.4200       204
    17.4400       168
    17.4600       110
    17.4800       138
    17.5000       138
    17.5200        94
    17.5400        90
    17.5600        98
    17.5800       102
    17.6000        82
    17.6200        90
    17.6400        98
    17.6600        88
    17.6800       112
    17.7000        76
    17.7200        94
    17.7400        88
    17.7600        88
    17.7800        74
    17.8000        60
    17.8200        66
    17.8400        76
    17.8600        62
    17.8800        60
    17.9000        62
    17.9200        52
    17.9400        56
    17.9600        54
    17.9800        50
    18.0000        74
    18.0200        50
    18.0400        60
    18.0600        64
    18.0800        50
    18.1000        52
    18.1200        66
    18.1400        52
    18.1600        52
    18.1800        72
    18.2000        66
    18.2200        54
    18.2400        58
    18.2600        64
    18.2800        60
    18.3000        68
    18.3200        70
    18.3400        56
    18.3600        68
    18.3800        50
    18.4000        60
    18.4200        64
    18.4400        68
    18.4600        48
    18.4800        52
    18.5000        58
    18.5200        82
    18.5400        62
    18.5600        66
    18.5800        64
    18.6000        50
    18.6200        68
    18.6400        66
    18.6600        78
    18.6800        50
    18.7000        68
    18.7200        68
    18.7400        58
    18.7600        60
    18.7800        54
    18.8000        62
    18.8200        54
    18.8400        56
    18.8600        66
    18.8800        64
    18.9000        58
    18.9200        58
    18.9400        64
    18.9600        66
    18.9800        50
    19.0000        62
    19.0200        84
    19.0400        68
    19.0600        64
    19.0800        52
    19.1000        74
    19.1200        52
    19.1400        48
    19.1600        56
    19.1800        48
    19.2000        70
    19.2200        58
    19.2400        80
    19.2600        76
    19.2800        66
    19.3000        82
    19.3200        68
    19.3400        72
    19.3600        72
    19.3800        70
    19.4000        76
    19.4200        74
    19.4400        76
    19.4600        94
    19.4800        84
    19.5000        80
    19.5200        80
    19.5400        78
    19.5600        90
    19.5800       106
    19.6000       108
    19.6200       114
    19.6400       100
    19.6600       126
    19.6800       130
    19.7000       122
    19.7200       120
    19.7400       142
    19.7600       160
    19.7800       170
    19.8000       178
    19.8200       190
    19.8400       192
    19.8600       198
    19.8800       196
    19.9000       200
    19.9200       212
    19.9400       194
    19.9600       204
    19.9800       178
    20.0000       164
    20.0200       178
    20.0400       176
    20.0600       154
    20.0800       172
    20.1000       164
    20.1200       164
    20.1400       160
    20.1600       170
    20.1800       140
    20.2000       142
    20.2200       154
    20.2400       168
    20.2600       150
    20.2800       128
    20.3000       158
    20.3200       126
    20.3400       162
    20.3600       150
