/////////////////////////////////////////////////////////////////////////////////
/// Profile Data Ascii Dump (XRD)                                             ///
/////////////////////////////////////////////////////////////////////////////////

  Group     : Swayze
  Data      : WS 737
  File Name : WS 737.RAW

# Profile Datafile
          comment             = Chabazite 
          date & time         = 08-03-12 06:29:26 

# Measurement Condition
    X-ray tube
          target              = Cu 
          voltage             = 40.0 (kV)
          current             = 30.0 (mA)
    Slits
          divergence slit     = 2.00000 (deg) 
          scatter slit        = 2.00000 (deg) 
          receiving slit      = 0.15000 (mm)  
    Scanning
          drive axis          = Theta-2Theta 
          scan range          =    4.000 -   65.000 
          scan mode           = Continuous Scan 
          scan speed          =   2.0000 (deg/min) 
          sampling pitch      =   0.0200 (deg) 
          preset time         =   0.60 (sec) 

# Data      [ Total No. = 3051 ]
  <2Theta>   <   I   >
     4.0000       186
     4.0200       198
     4.0400       194
     4.0600       194
     4.0800       168
     4.1000       202
     4.1200       192
     4.1400       188
     4.1600       178
     4.1800       180
     4.2000       186
     4.2200       206
     4.2400       174
     4.2600       170
     4.2800       172
     4.3000       184
     4.3200       176
     4.3400       188
     4.3600       194
     4.3800       184
     4.4000       158
     4.4200       168
     4.4400       178
     4.4600       194
     4.4800       174
     4.5000       174
     4.5200       174
     4.5400       160
     4.5600       182
     4.5800       162
     4.6000       158
     4.6200       170
     4.6400       178
     4.6600       164
     4.6800       152
     4.7000       158
     4.7200       178
     4.7400       160
     4.7600       172
     4.7800       156
     4.8000       148
     4.8200       176
     4.8400       158
     4.8600       156
     4.8800       164
     4.9000       172
     4.9200       194
     4.9400       172
     4.9600       166
     4.9800       154
     5.0000       170
     5.0200       150
     5.0400       144
     5.0600       166
     5.0800       178
     5.1000       148
     5.1200       162
     5.1400       164
     5.1600       170
     5.1800       180
     5.2000       176
     5.2200       178
     5.2400       170
     5.2600       164
     5.2800       144
     5.3000       158
     5.3200       184
     5.3400       158
     5.3600       164
     5.3800       190
     5.4000       156
     5.4200       150
     5.4400       164
     5.4600       152
     5.4800       178
     5.5000       176
     5.5200       166
     5.5400       144
     5.5600       164
     5.5800       158
     5.6000       150
     5.6200       162
     5.6400       156
     5.6600       160
     5.6800       148
     5.7000       170
     5.7200       150
     5.7400       160
     5.7600       168
     5.7800       166
     5.8000       182
     5.8200       156
     5.8400       150
     5.8600       174
     5.8800       166
     5.9000       162
     5.9200       140
     5.9400       180
     5.9600       188
     5.9800       186
     6.0000       180
     6.0200       166
     6.0400       184
     6.0600       156
     6.0800       170
     6.1000       176
     6.1200       176
     6.1400       186
     6.1600       178
     6.1800       184
     6.2000       156
     6.2200       172
     6.2400       174
     6.2600       172
     6.2800       172
     6.3000       142
     6.3200       184
     6.3400       148
     6.3600       162
     6.3800       174
     6.4000       170
     6.4200       144
     6.4400       162
     6.4600       160
     6.4800       160
     6.5000       158
     6.5200       158
     6.5400       158
     6.5600       144
     6.5800       164
     6.6000       158
     6.6200       136
     6.6400       140
     6.6600       160
     6.6800       152
     6.7000       140
     6.7200       156
     6.7400       154
     6.7600       170
     6.7800       174
     6.8000       154
     6.8200       162
     6.8400       160
     6.8600       134
     6.8800       156
     6.9000       170
     6.9200       142
     6.9400       166
     6.9600       166
     6.9800       132
     7.0000       152
     7.0200       138
     7.0400       138
     7.0600       140
     7.0800       126
     7.1000       148
     7.1200       130
     7.1400       124
     7.1600       142
     7.1800       124
     7.2000       110
     7.2200       126
     7.2400       118
     7.2600       132
     7.2800       144
     7.3000       122
     7.3200       138
     7.3400       144
     7.3600       118
     7.3800       124
     7.4000       130
     7.4200       148
     7.4400       132
     7.4600       118
     7.4800       144
     7.5000       114
     7.5200       114
     7.5400       126
     7.5600       116
     7.5800       122
     7.6000       114
     7.6200       116
     7.6400       126
     7.6600       122
     7.6800       122
     7.7000       126
     7.7200       114
     7.7400       138
     7.7600       114
     7.7800       120
     7.8000       150
     7.8200       118
     7.8400       118
     7.8600       138
     7.8800       112
     7.9000       116
     7.9200       130
     7.9400       112
     7.9600       116
     7.9800       120
     8.0000       134
     8.0200       112
     8.0400       128
     8.0600       130
     8.0800       122
     8.1000       122
     8.1200       130
     8.1400       112
     8.1600       116
     8.1800       106
     8.2000       128
     8.2200       116
     8.2400       144
     8.2600       110
     8.2800       126
     8.3000       140
     8.3200       116
     8.3400       126
     8.3600       124
     8.3800       126
     8.4000       114
     8.4200       140
     8.4400       124
     8.4600       122
     8.4800       136
     8.5000       148
     8.5200       132
     8.5400       132
     8.5600       128
     8.5800       122
     8.6000       116
     8.6200       144
     8.6400       126
     8.6600       120
     8.6800       114
     8.7000       126
     8.7200       136
     8.7400       136
     8.7600       134
     8.7800       128
     8.8000       126
     8.8200       146
     8.8400       124
     8.8600       132
     8.8800       134
     8.9000       144
     8.9200       150
     8.9400       146
     8.9600       188
     8.9800       186
     9.0000       188
     9.0200       160
     9.0400       170
     9.0600       186
     9.0800       216
     9.1000       216
     9.1200       250
     9.1400       214
     9.1600       250
     9.1800       270
     9.2000       284
     9.2200       348
     9.2400       372
     9.2600       382
     9.2800       380
     9.3000       404
     9.3200       474
     9.3400       546
     9.3600       766
     9.3800       902
     9.4000      1254
     9.4200      1514
     9.4400      1536
     9.4600      1342
     9.4800      1026
     9.5000       662
     9.5200       440
     9.5400       282
     9.5600       206
     9.5800       164
     9.6000       128
     9.6200       132
     9.6400       134
     9.6600       124
     9.6800       114
     9.7000       126
     9.7200       112
     9.7400       130
     9.7600       126
     9.7800       114
     9.8000       150
     9.8200       124
     9.8400       124
     9.8600       108
     9.8800       126
     9.9000        92
     9.9200       114
     9.9400       104
     9.9600       122
     9.9800       112
    10.0000       102
    10.0200       110
    10.0400        98
    10.0600       106
    10.0800       128
    10.1000       108
    10.1200       104
    10.1400       112
    10.1600       118
    10.1800       122
    10.2000        90
    10.2200       142
    10.2400       136
    10.2600       132
    10.2800       100
    10.3000       124
    10.3200       112
    10.3400        96
    10.3600       102
    10.3800        98
    10.4000        96
    10.4200       112
    10.4400       100
    10.4600       108
    10.4800       110
    10.5000       108
    10.5200       118
    10.5400       112
    10.5600       108
    10.5800       110
    10.6000        98
    10.6200        98
    10.6400       100
    10.6600        86
    10.6800       102
    10.7000       108
    10.7200       100
    10.7400       102
    10.7600       100
    10.7800        98
    10.8000        90
    10.8200        86
    10.8400        96
    10.8600       112
    10.8800        96
    10.9000        84
    10.9200        98
    10.9400        82
    10.9600       106
    10.9800        86
    11.0000       100
    11.0200       102
    11.0400       106
    11.0600       106
    11.0800       100
    11.1000        90
    11.1200       102
    11.1400       100
    11.1600        98
    11.1800        88
    11.2000        86
    11.2200        92
    11.2400        94
    11.2600       126
    11.2800       104
    11.3000        94
    11.3200        96
    11.3400        96
    11.3600        96
    11.3800        96
    11.4000        80
    11.4200       106
    11.4400        80
    11.4600        94
    11.4800        72
    11.5000       106
    11.5200        96
    11.5400        84
    11.5600        88
    11.5800        80
    11.6000        90
    11.6200        72
    11.6400       108
    11.6600        82
    11.6800        98
    11.7000        86
    11.7200       100
    11.7400        92
    11.7600       100
    11.7800        96
    11.8000        80
    11.8200        94
    11.8400       102
    11.8600       100
    11.8800        86
    11.9000        86
    11.9200        78
    11.9400        84
    11.9600        80
    11.9800        82
    12.0000       108
    12.0200        92
    12.0400       100
    12.0600       102
    12.0800        96
    12.1000        78
    12.1200        96
    12.1400        92
    12.1600        84
    12.1800       112
    12.2000        94
    12.2200        84
    12.2400        74
    12.2600        88
    12.2800        96
    12.3000       100
    12.3200       106
    12.3400        86
    12.3600        88
    12.3800        76
    12.4000        94
    12.4200        86
    12.4400       104
    12.4600       108
    12.4800        98
    12.5000        78
    12.5200       124
    12.5400       122
    12.5600       116
    12.5800       120
    12.6000       110
    12.6200       130
    12.6400       132
    12.6600       124
    12.6800       144
    12.7000       144
    12.7200       174
    12.7400       230
    12.7600       236
    12.7800       264
    12.8000       258
    12.8200       228
    12.8400       218
    12.8600       168
    12.8800       126
    12.9000       112
    12.9200        84
    12.9400        80
    12.9600        94
    12.9800        80
    13.0000        94
    13.0200       100
    13.0400        84
    13.0600        94
    13.0800        94
    13.1000        98
    13.1200        76
    13.1400        80
    13.1600        86
    13.1800        92
    13.2000        76
    13.2200        82
    13.2400        76
    13.2600        94
    13.2800        84
    13.3000        84
    13.3200        98
    13.3400        88
    13.3600       102
    13.3800        86
    13.4000        78
    13.4200        90
    13.4400       102
    13.4600        84
    13.4800        86
    13.5000        80
    13.5200        88
    13.5400        96
    13.5600        94
    13.5800        82
    13.6000        98
    13.6200        80
    13.6400        84
    13.6600        92
    13.6800       100
    13.7000        84
    13.7200        90
    13.7400       112
    13.7600       114
    13.7800        96
    13.8000       130
    13.8200       126
    13.8400       112
    13.8600       136
    13.8800       168
    13.9000       144
    13.9200       138
    13.9400       146
    13.9600       128
    13.9800       114
    14.0000       102
    14.0200        74
    14.0400        76
    14.0600        88
    14.0800        84
    14.1000        94
    14.1200        66
    14.1400        76
    14.1600        82
    14.1800        74
    14.2000        80
    14.2200        74
    14.2400        78
    14.2600        76
    14.2800        72
    14.3000        78
    14.3200        76
    14.3400        88
    14.3600        68
    14.3800        66
    14.4000        92
    14.4200        76
    14.4400        72
    14.4600        82
    14.4800        70
    14.5000        78
    14.5200        86
    14.5400        74
    14.5600        82
    14.5800        68
    14.6000        60
    14.6200        80
    14.6400        76
    14.6600        92
    14.6800        74
    14.7000        86
    14.7200        74
    14.7400        78
    14.7600        84
    14.7800        70
    14.8000        78
    14.8200        88
    14.8400        84
    14.8600        68
    14.8800        84
    14.9000        88
    14.9200        64
    14.9400        70
    14.9600        62
    14.9800        92
    15.0000        64
    15.0200        92
    15.0400        60
    15.0600        88
    15.0800        76
    15.1000        90
    15.1200        78
    15.1400        82
    15.1600        82
    15.1800        58
    15.2000        72
    15.2200        78
    15.2400        64
    15.2600        86
    15.2800        84
    15.3000        78
    15.3200        82
    15.3400        78
    15.3600        86
    15.3800        76
    15.4000        86
    15.4200        88
    15.4400        80
    15.4600        72
    15.4800        72
    15.5000       104
    15.5200       102
    15.5400        80
    15.5600        94
    15.5800        74
    15.6000        92
    15.6200        94
    15.6400       110
    15.6600       130
    15.6800       112
    15.7000       108
    15.7200       134
    15.7400       130
    15.7600       130
    15.7800       146
    15.8000       160
    15.8200       184
    15.8400       230
    15.8600       290
    15.8800       292
    15.9000       338
    15.9200       368
    15.9400       384
    15.9600       370
    15.9800       280
    16.0000       260
    16.0200       192
    16.0400       134
    16.0600       116
    16.0800        86
    16.1000        66
    16.1200        90
    16.1400        86
    16.1600        74
    16.1800        76
    16.2000        90
    16.2200        68
    16.2400        72
    16.2600        74
    16.2800        92
    16.3000        68
    16.3200        80
    16.3400        62
    16.3600        70
    16.3800        86
    16.4000        66
    16.4200        68
    16.4400        80
    16.4600        64
    16.4800        84
    16.5000        58
    16.5200        70
    16.5400        76
    16.5600        72
    16.5800        62
    16.6000        68
    16.6200        60
    16.6400        92
    16.6600        66
    16.6800        76
    16.7000        56
    16.7200        78
    16.7400       100
    16.7600        80
    16.7800        88
    16.8000        52
    16.8200        62
    16.8400        72
    16.8600        90
    16.8800        86
    16.9000        56
    16.9200        74
    16.9400        82
    16.9600        70
    16.9800        90
    17.0000        70
    17.0200        78
    17.0400        72
    17.0600        66
    17.0800        80
    17.1000        78
    17.1200        74
    17.1400        74
    17.1600        80
    17.1800        72
    17.2000        84
    17.2200        76
    17.2400        78
    17.2600        92
    17.2800        82
    17.3000        90
    17.3200        90
    17.3400        76
    17.3600        94
    17.3800       100
    17.4000        84
    17.4200       106
    17.4400        82
    17.4600        98
    17.4800       118
    17.5000       146
    17.5200       146
    17.5400       220
    17.5600       276
    17.5800       300
    17.6000       278
    17.6200       264
    17.6400       280
    17.6600       300
    17.6800       328
    17.7000       336
    17.7200       364
    17.7400       324
    17.7600       272
    17.7800       194
    17.8000       212
    17.8200       132
    17.8400       104
    17.8600       100
    17.8800        82
    17.9000        74
    17.9200        72
    17.9400        88
    17.9600        56
    17.9800        88
    18.0000        78
    18.0200        74
    18.0400        72
    18.0600        90
    18.0800        72
    18.1000        60
    18.1200        70
    18.1400        70
    18.1600        72
    18.1800        76
    18.2000        80
    18.2200        74
    18.2400        58
    18.2600        74
    18.2800        74
    18.3000        78
    18.3200        60
    18.3400        90
    18.3600        70
    18.3800        80
    18.4000        74
    18.4200        90
    18.4400        94
    18.4600        80
    18.4800        78
    18.5000        82
    18.5200        96
    18.5400        82
    18.5600        82
    18.5800        72
    18.6000        66
    18.6200        86
    18.6400        66
    18.6600        82
    18.6800        94
    18.7000        80
    18.7200        88
    18.7400        74
    18.7600        98
    18.7800        94
    18.8000       100
    18.8200       126
    18.8400       106
    18.8600       158
    18.8800       176
    18.9000       226
    18.9200       214
    18.9400       246
    18.9600       248
    18.9800       254
    19.0000       248
    19.0200       184
    19.0400       158
    19.0600       134
    19.0800       112
    19.1000        94
    19.1200        70
    19.1400        72
    19.1600        84
    19.1800        82
    19.2000        78
    19.2200        86
    19.2400        94
    19.2600        78
    19.2800        80
    19.3000        86
    19.3200        86
    19.3400        74
    19.3600        76
    19.3800        86
    19.4000        90
    19.4200        56
    19.4400        92
    19.4600        84
    19.4800        74
    19.5000        66
    19.5200        82
    19.5400        96
    19.5600        80
    19.5800        80
    19.6000        86
    19.6200        90
    19.6400        76
    19.6600        92
    19.6800        78
    19.7000       100
    19.7200        66
    19.7400        74
    19.7600        72
    19.7800        86
    19.8000        68
    19.8200        74
    19.8400        78
    19.8600        82
    19.8800        82
    19.9000        68
    19.9200       100
    19.9400        86
    19.9600        92
    19.9800        92
    20.0000       106
    20.0200        72
    20.0400        84
    20.0600        96
    20.0800       104
    20.1000       110
    20.1200       106
    20.1400       120
    20.1600       122
    20.1800       170
    20.2000       204
    20.2200       208
    20.2400       208
    20.2600       234
    20.2800       244
    20.3000       246
    20.3200       342
    20.3400       378
    20.3600       446
    20.3800       512
