/////////////////////////////////////////////////////////////////////////////////
/// Profile Data Ascii Dump (XRD)                                             ///
/////////////////////////////////////////////////////////////////////////////////

  Group     : Swayze
  Data      : WS425
  File Name : WS425.RAW

# Profile Datafile
          comment             = Apatite-hydroxyl 
          date & time         = 08-04-08 10:00:56 

# Measurement Condition
    X-ray tube
          target              = Cu 
          voltage             = 40.0 (kV)
          current             = 30.0 (mA)
    Slits
          divergence slit     = 2.00000 (deg) 
          scatter slit        = 2.00000 (deg) 
          receiving slit      = 0.15000 (mm)  
    Scanning
          drive axis          = Theta-2Theta 
          scan range          =    4.000 -   65.000 
          scan mode           = Continuous Scan 
          scan speed          =   2.0000 (deg/min) 
          sampling pitch      =   0.0200 (deg) 
          preset time         =   0.60 (sec) 

# Data      [ Total No. = 3051 ]
  <2Theta>   <   I   >
     4.0000       170
     4.0200       190
     4.0400       180
     4.0600       176
     4.0800       182
     4.1000       158
     4.1200       168
     4.1400       156
     4.1600       174
     4.1800       208
     4.2000       172
     4.2200       176
     4.2400       172
     4.2600       144
     4.2800       190
     4.3000       160
     4.3200       144
     4.3400       154
     4.3600       164
     4.3800       176
     4.4000       184
     4.4200       166
     4.4400       142
     4.4600       180
     4.4800       168
     4.5000       174
     4.5200       178
     4.5400       178
     4.5600       174
     4.5800       160
     4.6000       158
     4.6200       146
     4.6400       172
     4.6600       156
     4.6800       186
     4.7000       142
     4.7200       166
     4.7400       160
     4.7600       148
     4.7800       132
     4.8000       158
     4.8200       148
     4.8400       138
     4.8600       158
     4.8800       142
     4.9000       138
     4.9200       162
     4.9400       140
     4.9600       140
     4.9800       148
     5.0000       154
     5.0200       130
     5.0400       166
     5.0600       160
     5.0800       168
     5.1000       152
     5.1200       176
     5.1400       140
     5.1600       186
     5.1800       152
     5.2000       154
     5.2200       144
     5.2400       162
     5.2600       140
     5.2800       164
     5.3000       138
     5.3200       132
     5.3400       164
     5.3600       170
     5.3800       150
     5.4000       148
     5.4200       152
     5.4400       158
     5.4600       174
     5.4800       154
     5.5000       172
     5.5200       150
     5.5400       140
     5.5600       146
     5.5800       144
     5.6000       154
     5.6200       134
     5.6400       170
     5.6600       152
     5.6800       152
     5.7000       160
     5.7200       142
     5.7400       144
     5.7600       138
     5.7800       142
     5.8000       134
     5.8200       136
     5.8400       162
     5.8600       150
     5.8800       160
     5.9000       164
     5.9200       158
     5.9400       140
     5.9600       164
     5.9800       146
     6.0000       160
     6.0200       152
     6.0400       142
     6.0600       136
     6.0800       140
     6.1000       146
     6.1200       142
     6.1400       134
     6.1600       144
     6.1800       122
     6.2000       154
     6.2200       158
     6.2400       140
     6.2600       154
     6.2800       126
     6.3000       140
     6.3200       126
     6.3400       160
     6.3600       150
     6.3800       128
     6.4000       140
     6.4200       142
     6.4400       138
     6.4600       122
     6.4800       144
     6.5000       146
     6.5200       118
     6.5400       134
     6.5600       156
     6.5800       134
     6.6000       136
     6.6200       142
     6.6400       126
     6.6600       122
     6.6800       130
     6.7000       136
     6.7200       120
     6.7400       120
     6.7600       122
     6.7800       112
     6.8000        98
     6.8200       100
     6.8400       120
     6.8600       112
     6.8800       132
     6.9000       106
     6.9200       104
     6.9400       134
     6.9600       108
     6.9800       128
     7.0000       116
     7.0200       116
     7.0400       102
     7.0600       120
     7.0800       114
     7.1000       128
     7.1200       124
     7.1400       114
     7.1600       102
     7.1800       112
     7.2000       118
     7.2200        90
     7.2400       112
     7.2600        96
     7.2800        92
     7.3000       104
     7.3200       110
     7.3400       102
     7.3600       114
     7.3800       112
     7.4000       122
     7.4200       102
     7.4400        94
     7.4600        98
     7.4800       112
     7.5000       110
     7.5200       116
     7.5400        94
     7.5600       106
     7.5800       126
     7.6000        84
     7.6200        72
     7.6400        94
     7.6600       106
     7.6800        98
     7.7000       116
     7.7200        82
     7.7400       108
     7.7600        98
     7.7800       124
     7.8000       102
     7.8200       106
     7.8400       122
     7.8600       114
     7.8800       110
     7.9000       100
     7.9200       120
     7.9400        98
     7.9600       106
     7.9800        96
     8.0000       112
     8.0200       114
     8.0400       108
     8.0600       132
     8.0800       124
     8.1000       108
     8.1200        84
     8.1400       122
     8.1600       114
     8.1800       112
     8.2000       102
     8.2200       116
     8.2400       116
     8.2600       110
     8.2800       112
     8.3000       108
     8.3200       112
     8.3400        96
     8.3600       100
     8.3800       100
     8.4000       116
     8.4200       118
     8.4400       122
     8.4600       106
     8.4800       122
     8.5000       110
     8.5200       118
     8.5400        94
     8.5600       114
     8.5800       120
     8.6000       116
     8.6200        96
     8.6400        98
     8.6600       118
     8.6800       108
     8.7000       128
     8.7200       136
     8.7400       120
     8.7600       108
     8.7800       116
     8.8000       106
     8.8200       106
     8.8400       116
     8.8600        94
     8.8800        84
     8.9000       108
     8.9200       128
     8.9400       130
     8.9600       110
     8.9800        98
     9.0000       116
     9.0200       112
     9.0400        96
     9.0600       116
     9.0800       114
     9.1000       114
     9.1200       106
     9.1400       102
     9.1600        98
     9.1800       106
     9.2000       116
     9.2200        94
     9.2400        96
     9.2600       134
     9.2800       100
     9.3000        86
     9.3200       100
     9.3400        92
     9.3600        82
     9.3800        96
     9.4000       106
     9.4200        94
     9.4400       120
     9.4600       110
     9.4800       100
     9.5000       114
     9.5200       130
     9.5400        94
     9.5600       102
     9.5800        90
     9.6000       106
     9.6200       116
     9.6400       112
     9.6600        96
     9.6800        86
     9.7000       110
     9.7200       108
     9.7400       104
     9.7600        80
     9.7800        90
     9.8000       126
     9.8200       100
     9.8400        94
     9.8600        88
     9.8800        90
     9.9000       102
     9.9200        96
     9.9400        92
     9.9600        98
     9.9800       110
    10.0000        86
    10.0200        86
    10.0400       122
    10.0600       100
    10.0800       112
    10.1000       100
    10.1200       116
    10.1400       120
    10.1600       100
    10.1800        94
    10.2000       102
    10.2200        88
    10.2400        88
    10.2600        96
    10.2800       106
    10.3000        92
    10.3200        72
    10.3400        86
    10.3600        92
    10.3800        96
    10.4000        82
    10.4200       102
    10.4400       106
    10.4600        88
    10.4800        76
    10.5000       106
    10.5200        92
    10.5400       104
    10.5600        92
    10.5800       100
    10.6000        96
    10.6200       100
    10.6400        76
    10.6600       108
    10.6800        88
    10.7000        88
    10.7200       100
    10.7400       104
    10.7600        98
    10.7800       116
    10.8000       108
    10.8200       114
    10.8400       104
    10.8600       130
    10.8800        98
    10.9000        80
    10.9200        86
    10.9400        82
    10.9600        84
    10.9800       100
    11.0000        94
    11.0200        82
    11.0400       100
    11.0600        80
    11.0800        92
    11.1000        82
    11.1200        84
    11.1400        92
    11.1600        88
    11.1800        90
    11.2000        70
    11.2200        94
    11.2400        80
    11.2600        74
    11.2800        96
    11.3000        90
    11.3200        78
    11.3400        68
    11.3600        92
    11.3800        76
    11.4000        86
    11.4200        84
    11.4400        94
    11.4600        76
    11.4800        78
    11.5000        82
    11.5200        92
    11.5400        92
    11.5600        78
    11.5800        62
    11.6000        72
    11.6200        76
    11.6400        88
    11.6600        78
    11.6800        46
    11.7000        90
    11.7200        86
    11.7400        80
    11.7600        70
    11.7800        80
    11.8000        84
    11.8200        68
    11.8400        90
    11.8600        74
    11.8800        70
    11.9000        56
    11.9200        74
    11.9400        66
    11.9600       102
    11.9800        70
    12.0000        78
    12.0200        84
    12.0400        68
    12.0600        68
    12.0800        56
    12.1000        70
    12.1200        80
    12.1400        86
    12.1600        66
    12.1800        70
    12.2000        80
    12.2200        80
    12.2400        76
    12.2600        74
    12.2800        72
    12.3000        58
    12.3200        66
    12.3400        68
    12.3600        68
    12.3800        82
    12.4000        70
    12.4200        72
    12.4400        70
    12.4600        80
    12.4800        68
    12.5000        70
    12.5200        74
    12.5400        58
    12.5600        78
    12.5800        64
    12.6000        74
    12.6200        64
    12.6400        62
    12.6600        78
    12.6800        78
    12.7000        46
    12.7200        62
    12.7400        64
    12.7600        64
    12.7800        66
    12.8000        66
    12.8200        62
    12.8400        58
    12.8600        76
    12.8800        64
    12.9000        56
    12.9200        76
    12.9400        72
    12.9600        54
    12.9800        58
    13.0000        68
    13.0200        60
    13.0400        72
    13.0600        48
    13.0800        54
    13.1000        84
    13.1200        50
    13.1400        52
    13.1600        52
    13.1800        56
    13.2000        68
    13.2200        56
    13.2400        50
    13.2600        58
    13.2800        60
    13.3000        66
    13.3200        62
    13.3400        64
    13.3600        72
    13.3800        52
    13.4000        74
    13.4200        62
    13.4400        66
    13.4600        64
    13.4800        58
    13.5000        56
    13.5200        64
    13.5400        62
    13.5600        62
    13.5800        74
    13.6000        46
    13.6200        64
    13.6400        70
    13.6600        54
    13.6800        64
    13.7000        64
    13.7200        58
    13.7400        52
    13.7600        58
    13.7800        60
    13.8000        64
    13.8200        78
    13.8400        80
    13.8600        54
    13.8800        58
    13.9000        60
    13.9200        64
    13.9400        64
    13.9600        68
    13.9800        70
    14.0000        46
    14.0200        66
    14.0400        54
    14.0600        60
    14.0800        66
    14.1000        50
    14.1200        62
    14.1400        60
    14.1600        50
    14.1800        64
    14.2000        58
    14.2200        50
    14.2400        56
    14.2600        46
    14.2800        52
    14.3000        46
    14.3200        50
    14.3400        58
    14.3600        60
    14.3800        60
    14.4000        46
    14.4200        64
    14.4400        50
    14.4600        46
    14.4800        58
    14.5000        60
    14.5200        64
    14.5400        46
    14.5600        58
    14.5800        54
    14.6000        54
    14.6200        50
    14.6400        50
    14.6600        50
    14.6800        56
    14.7000        50
    14.7200        56
    14.7400        52
    14.7600        68
    14.7800        48
    14.8000        52
    14.8200        52
    14.8400        50
    14.8600        60
    14.8800        50
    14.9000        56
    14.9200        64
    14.9400        52
    14.9600        46
    14.9800        48
    15.0000        64
    15.0200        66
    15.0400        52
    15.0600        48
    15.0800        66
    15.1000        38
    15.1200        60
    15.1400        44
    15.1600        44
    15.1800        54
    15.2000        60
    15.2200        54
    15.2400        46
    15.2600        44
    15.2800        62
    15.3000        52
    15.3200        48
    15.3400        56
    15.3600        54
    15.3800        48
    15.4000        60
    15.4200        68
    15.4400        64
    15.4600        56
    15.4800        46
    15.5000        62
    15.5200        42
    15.5400        40
    15.5600        40
    15.5800        50
    15.6000        62
    15.6200        52
    15.6400        36
    15.6600        46
    15.6800        42
    15.7000        50
    15.7200        56
    15.7400        62
    15.7600        68
    15.7800        58
    15.8000        40
    15.8200        54
    15.8400        46
    15.8600        44
    15.8800        50
    15.9000        44
    15.9200        56
    15.9400        60
    15.9600        52
    15.9800        58
    16.0000        50
    16.0200        60
    16.0400        46
    16.0600        68
    16.0800        58
    16.1000        44
    16.1200        42
    16.1400        50
    16.1600        52
    16.1800        44
    16.2000        50
    16.2200        58
    16.2400        56
    16.2600        66
    16.2800        54
    16.3000        66
    16.3200        46
    16.3400        38
    16.3600        46
    16.3800        48
    16.4000        50
    16.4200        56
    16.4400        42
    16.4600        56
    16.4800        46
    16.5000        58
    16.5200        56
    16.5400        46
    16.5600        40
    16.5800        54
    16.6000        56
    16.6200        46
    16.6400        62
    16.6600        60
    16.6800        62
    16.7000        56
    16.7200        62
    16.7400        62
    16.7600        50
    16.7800        82
    16.8000        58
    16.8200        58
    16.8400        68
    16.8600        56
    16.8800        48
    16.9000        40
    16.9200        56
    16.9400        40
    16.9600        56
    16.9800        42
    17.0000        54
    17.0200        48
    17.0400        44
    17.0600        52
    17.0800        54
    17.1000        36
    17.1200        48
    17.1400        44
    17.1600        54
    17.1800        60
    17.2000        56
    17.2200        44
    17.2400        44
    17.2600        42
    17.2800        54
    17.3000        44
    17.3200        46
    17.3400        56
    17.3600        52
    17.3800        58
    17.4000        44
    17.4200        60
    17.4400        44
    17.4600        44
    17.4800        54
    17.5000        36
    17.5200        52
    17.5400        64
    17.5600        46
    17.5800        38
    17.6000        42
    17.6200        52
    17.6400        36
    17.6600        46
    17.6800        62
    17.7000        54
    17.7200        56
    17.7400        48
    17.7600        38
    17.7800        48
    17.8000        50
    17.8200        48
    17.8400        44
    17.8600        48
    17.8800        34
    17.9000        46
    17.9200        36
    17.9400        40
    17.9600        40
    17.9800        56
    18.0000        44
    18.0200        38
    18.0400        44
    18.0600        44
    18.0800        44
    18.1000        34
    18.1200        42
    18.1400        38
    18.1600        46
    18.1800        40
    18.2000        40
    18.2200        36
    18.2400        42
    18.2600        40
    18.2800        40
    18.3000        38
    18.3200        48
    18.3400        52
    18.3600        42
    18.3800        50
    18.4000        38
    18.4200        44
    18.4400        52
    18.4600        48
    18.4800        34
    18.5000        44
    18.5200        48
    18.5400        52
    18.5600        58
    18.5800        48
    18.6000        54
    18.6200        48
    18.6400        46
    18.6600        52
    18.6800        52
    18.7000        48
    18.7200        44
    18.7400        68
    18.7600        44
    18.7800        38
    18.8000        48
    18.8200        52
    18.8400        54
    18.8600        60
    18.8800        58
    18.9000        52
    18.9200        48
    18.9400        58
    18.9600        48
    18.9800        56
    19.0000        44
    19.0200        48
    19.0400        42
    19.0600        62
    19.0800        46
    19.1000        44
    19.1200        36
    19.1400        50
    19.1600        36
    19.1800        38
    19.2000        38
    19.2200        46
    19.2400        32
    19.2600        54
    19.2800        44
    19.3000        40
    19.3200        42
    19.3400        40
    19.3600        34
    19.3800        44
    19.4000        46
    19.4200        44
    19.4400        48
    19.4600        48
    19.4800        50
    19.5000        48
    19.5200        58
    19.5400        46
    19.5600        52
    19.5800        40
    19.6000        50
    19.6200        56
    19.6400        58
    19.6600        40
    19.6800        50
    19.7000        46
    19.7200        42
    19.7400        52
    19.7600        52
    19.7800        46
    19.8000        50
    19.8200        36
    19.8400        64
    19.8600        38
    19.8800        58
    19.9000        44
    19.9200        58
    19.9400        38
    19.9600        52
    19.9800        34
    20.0000        54
    20.0200        48
    20.0400        36
    20.0600        46
    20.0800        38
    20.1000        34
    20.1200        42
    20.1400        40
    20.1600        42
    20.1800        38
    20.2000        42
    20.2200        36
    20.2400        34
    20.2600        36
    20.2800        50
    20.3000        38
    20.3200        44
    20.3400        46
    20.3600        46
    20.3800        40
