/////////////////////////////////////////////////////////////////////////////////
/// Profile Data Ascii Dump (XRD)                                             ///
/////////////////////////////////////////////////////////////////////////////////

  Group     : Swayze
  Data      : WS479
  File Name : WS479.RAW

# Profile Datafile
          comment             = Almandine 
          date & time         = 08-03-14 06:55:54 

# Measurement Condition
    X-ray tube
          target              = Cu 
          voltage             = 40.0 (kV)
          current             = 30.0 (mA)
    Slits
          divergence slit     = 2.00000 (deg) 
          scatter slit        = 2.00000 (deg) 
          receiving slit      = 0.15000 (mm)  
    Scanning
          drive axis          = Theta-2Theta 
          scan range          =    4.000 -   65.000 
          scan mode           = Continuous Scan 
          scan speed          =   2.0000 (deg/min) 
          sampling pitch      =   0.0200 (deg) 
          preset time         =   0.60 (sec) 

# Data      [ Total No. = 3051 ]
  <2Theta>   <   I   >
     4.0000       210
     4.0200       210
     4.0400       176
     4.0600       156
     4.0800       192
     4.1000       188
     4.1200       186
     4.1400       202
     4.1600       170
     4.1800       198
     4.2000       190
     4.2200       200
     4.2400       150
     4.2600       196
     4.2800       180
     4.3000       160
     4.3200       178
     4.3400       168
     4.3600       178
     4.3800       188
     4.4000       214
     4.4200       184
     4.4400       200
     4.4600       178
     4.4800       162
     4.5000       184
     4.5200       164
     4.5400       172
     4.5600       158
     4.5800       176
     4.6000       192
     4.6200       170
     4.6400       170
     4.6600       166
     4.6800       178
     4.7000       176
     4.7200       178
     4.7400       184
     4.7600       164
     4.7800       172
     4.8000       174
     4.8200       154
     4.8400       158
     4.8600       156
     4.8800       150
     4.9000       146
     4.9200       188
     4.9400       140
     4.9600       158
     4.9800       194
     5.0000       142
     5.0200       158
     5.0400       170
     5.0600       184
     5.0800       140
     5.1000       164
     5.1200       158
     5.1400       124
     5.1600       160
     5.1800       160
     5.2000       144
     5.2200       178
     5.2400       152
     5.2600       164
     5.2800       160
     5.3000       180
     5.3200       162
     5.3400       158
     5.3600       158
     5.3800       166
     5.4000       146
     5.4200       160
     5.4400       148
     5.4600       182
     5.4800       160
     5.5000       176
     5.5200       140
     5.5400       142
     5.5600       170
     5.5800       184
     5.6000       170
     5.6200       172
     5.6400       168
     5.6600       142
     5.6800       186
     5.7000       178
     5.7200       168
     5.7400       186
     5.7600       148
     5.7800       168
     5.8000       170
     5.8200       166
     5.8400       180
     5.8600       164
     5.8800       166
     5.9000       160
     5.9200       154
     5.9400       170
     5.9600       158
     5.9800       134
     6.0000       162
     6.0200       174
     6.0400       160
     6.0600       174
     6.0800       162
     6.1000       160
     6.1200       154
     6.1400       158
     6.1600       180
     6.1800       160
     6.2000       178
     6.2200       160
     6.2400       176
     6.2600       144
     6.2800       162
     6.3000       152
     6.3200       182
     6.3400       144
     6.3600       138
     6.3800       122
     6.4000       156
     6.4200       160
     6.4400       142
     6.4600       138
     6.4800       176
     6.5000       126
     6.5200       120
     6.5400       148
     6.5600       146
     6.5800       148
     6.6000       132
     6.6200       144
     6.6400       134
     6.6600       128
     6.6800       166
     6.7000       144
     6.7200       120
     6.7400       118
     6.7600       120
     6.7800       144
     6.8000       138
     6.8200       154
     6.8400       130
     6.8600       122
     6.8800       138
     6.9000       122
     6.9200       122
     6.9400       110
     6.9600       138
     6.9800       128
     7.0000       122
     7.0200       110
     7.0400       132
     7.0600       134
     7.0800       114
     7.1000       128
     7.1200       132
     7.1400        98
     7.1600       130
     7.1800       118
     7.2000       142
     7.2200       128
     7.2400       118
     7.2600       114
     7.2800       124
     7.3000       106
     7.3200       136
     7.3400       128
     7.3600       128
     7.3800       114
     7.4000       104
     7.4200       130
     7.4400       116
     7.4600       152
     7.4800       114
     7.5000       130
     7.5200       148
     7.5400       126
     7.5600       104
     7.5800       126
     7.6000        94
     7.6200       118
     7.6400       114
     7.6600       114
     7.6800       124
     7.7000       116
     7.7200       116
     7.7400       142
     7.7600       100
     7.7800       118
     7.8000       104
     7.8200       122
     7.8400       116
     7.8600       114
     7.8800       130
     7.9000       132
     7.9200       126
     7.9400       136
     7.9600       118
     7.9800       124
     8.0000       124
     8.0200       106
     8.0400       108
     8.0600       124
     8.0800       106
     8.1000       130
     8.1200       108
     8.1400       118
     8.1600       112
     8.1800       126
     8.2000       106
     8.2200       110
     8.2400       106
     8.2600       110
     8.2800       114
     8.3000       112
     8.3200       136
     8.3400        92
     8.3600        98
     8.3800       112
     8.4000       118
     8.4200       116
     8.4400       110
     8.4600       120
     8.4800       116
     8.5000       160
     8.5200       110
     8.5400       138
     8.5600       120
     8.5800       120
     8.6000        98
     8.6200       150
     8.6400       130
     8.6600       116
     8.6800       118
     8.7000       110
     8.7200       124
     8.7400       114
     8.7600       108
     8.7800       134
     8.8000       114
     8.8200       118
     8.8400       146
     8.8600       124
     8.8800       130
     8.9000       120
     8.9200       122
     8.9400       120
     8.9600       128
     8.9800       116
     9.0000       118
     9.0200       118
     9.0400       136
     9.0600       154
     9.0800       134
     9.1000       122
     9.1200       128
     9.1400       120
     9.1600       142
     9.1800       128
     9.2000       120
     9.2200       106
     9.2400       114
     9.2600       122
     9.2800       102
     9.3000       116
     9.3200       118
     9.3400       118
     9.3600       126
     9.3800       114
     9.4000       124
     9.4200       122
     9.4400       136
     9.4600       110
     9.4800       104
     9.5000       122
     9.5200       114
     9.5400       122
     9.5600       120
     9.5800       126
     9.6000       100
     9.6200       120
     9.6400       116
     9.6600       112
     9.6800       110
     9.7000       126
     9.7200       108
     9.7400       100
     9.7600       110
     9.7800       102
     9.8000        94
     9.8200       104
     9.8400       100
     9.8600       134
     9.8800       114
     9.9000       132
     9.9200       120
     9.9400       118
     9.9600       122
     9.9800       130
    10.0000       108
    10.0200       124
    10.0400       110
    10.0600       124
    10.0800       116
    10.1000        94
    10.1200       100
    10.1400       110
    10.1600        98
    10.1800       106
    10.2000       116
    10.2200       114
    10.2400        98
    10.2600       120
    10.2800       114
    10.3000       128
    10.3200       110
    10.3400       122
    10.3600        94
    10.3800       104
    10.4000       112
    10.4200        96
    10.4400       116
    10.4600       116
    10.4800       102
    10.5000        98
    10.5200        88
    10.5400       112
    10.5600       102
    10.5800       116
    10.6000       120
    10.6200       100
    10.6400        98
    10.6600        90
    10.6800        94
    10.7000       108
    10.7200        96
    10.7400        84
    10.7600        90
    10.7800       106
    10.8000        84
    10.8200        84
    10.8400        86
    10.8600        82
    10.8800       112
    10.9000        92
    10.9200        84
    10.9400       110
    10.9600       118
    10.9800        98
    11.0000        82
    11.0200        88
    11.0400        90
    11.0600        92
    11.0800        96
    11.1000       100
    11.1200        90
    11.1400        98
    11.1600        80
    11.1800        86
    11.2000        84
    11.2200        84
    11.2400        80
    11.2600       108
    11.2800        88
    11.3000        98
    11.3200        92
    11.3400        74
    11.3600       100
    11.3800        84
    11.4000       102
    11.4200        98
    11.4400       102
    11.4600        94
    11.4800        90
    11.5000       100
    11.5200        98
    11.5400        96
    11.5600        84
    11.5800        92
    11.6000        98
    11.6200        94
    11.6400       102
    11.6600        98
    11.6800        78
    11.7000        88
    11.7200        94
    11.7400       100
    11.7600        94
    11.7800        94
    11.8000       102
    11.8200        72
    11.8400        96
    11.8600        74
    11.8800        90
    11.9000        82
    11.9200        98
    11.9400        98
    11.9600        76
    11.9800        88
    12.0000        84
    12.0200        86
    12.0400        86
    12.0600        78
    12.0800        88
    12.1000        96
    12.1200        86
    12.1400        88
    12.1600        84
    12.1800        98
    12.2000        82
    12.2200       104
    12.2400        84
    12.2600        62
    12.2800        60
    12.3000        76
    12.3200        82
    12.3400        76
    12.3600        82
    12.3800        66
    12.4000        86
    12.4200        86
    12.4400        80
    12.4600        72
    12.4800        72
    12.5000        80
    12.5200        90
    12.5400        76
    12.5600        98
    12.5800        76
    12.6000        72
    12.6200        82
    12.6400        76
    12.6600        84
    12.6800        80
    12.7000        90
    12.7200        78
    12.7400        92
    12.7600        82
    12.7800        80
    12.8000        86
    12.8200        82
    12.8400        70
    12.8600        88
    12.8800        62
    12.9000        90
    12.9200        68
    12.9400        84
    12.9600        98
    12.9800        76
    13.0000        72
    13.0200        66
    13.0400        68
    13.0600        72
    13.0800        70
    13.1000        70
    13.1200        74
    13.1400        56
    13.1600        68
    13.1800        78
    13.2000        98
    13.2200        76
    13.2400        72
    13.2600        76
    13.2800        74
    13.3000        86
    13.3200        60
    13.3400        78
    13.3600        68
    13.3800        76
    13.4000        72
    13.4200        70
    13.4400        64
    13.4600        74
    13.4800        90
    13.5000        66
    13.5200        84
    13.5400        76
    13.5600        78
    13.5800        70
    13.6000        84
    13.6200        66
    13.6400        68
    13.6600        76
    13.6800        82
    13.7000        68
    13.7200        66
    13.7400        84
    13.7600        82
    13.7800        68
    13.8000        74
    13.8200        60
    13.8400        62
    13.8600        64
    13.8800        58
    13.9000        70
    13.9200        68
    13.9400        68
    13.9600        58
    13.9800        50
    14.0000        82
    14.0200        76
    14.0400        70
    14.0600        80
    14.0800        60
    14.1000        76
    14.1200        90
    14.1400        72
    14.1600        68
    14.1800        54
    14.2000        86
    14.2200        60
    14.2400        66
    14.2600        62
    14.2800        86
    14.3000        70
    14.3200        80
    14.3400        60
    14.3600        72
    14.3800        72
    14.4000        54
    14.4200        82
    14.4400        70
    14.4600        60
    14.4800        78
    14.5000        64
    14.5200        62
    14.5400        70
    14.5600        66
    14.5800        56
    14.6000        64
    14.6200        66
    14.6400        72
    14.6600        82
    14.6800        78
    14.7000        70
    14.7200        74
    14.7400        62
    14.7600        74
    14.7800        72
    14.8000        74
    14.8200        56
    14.8400        66
    14.8600        50
    14.8800        52
    14.9000        76
    14.9200        68
    14.9400        64
    14.9600        60
    14.9800        70
    15.0000        70
    15.0200        60
    15.0400        56
    15.0600        56
    15.0800        50
    15.1000        76
    15.1200        76
    15.1400        58
    15.1600        60
    15.1800        60
    15.2000        54
    15.2200        64
    15.2400        74
    15.2600        54
    15.2800        76
    15.3000        74
    15.3200        54
    15.3400        74
    15.3600        72
    15.3800        64
    15.4000        72
    15.4200        70
    15.4400        76
    15.4600        68
    15.4800        48
    15.5000        54
    15.5200        62
    15.5400        56
    15.5600        64
    15.5800        42
    15.6000        78
    15.6200        56
    15.6400        70
    15.6600        64
    15.6800        70
    15.7000        82
    15.7200        66
    15.7400        62
    15.7600        66
    15.7800        48
    15.8000        74
    15.8200        52
    15.8400        62
    15.8600        74
    15.8800        52
    15.9000        62
    15.9200        54
    15.9400        56
    15.9600        54
    15.9800        64
    16.0000        58
    16.0200        56
    16.0400        58
    16.0600        60
    16.0800        64
    16.1000        72
    16.1200        72
    16.1400        56
    16.1600        68
    16.1800        58
    16.2000        48
    16.2200        54
    16.2400        64
    16.2600        48
    16.2800        60
    16.3000        80
    16.3200        66
    16.3400        56
    16.3600        58
    16.3800        66
    16.4000        74
    16.4200        50
    16.4400        56
    16.4600        64
    16.4800        62
    16.5000        46
    16.5200        66
    16.5400        76
    16.5600        50
    16.5800        62
    16.6000        60
    16.6200        54
    16.6400        70
    16.6600        72
    16.6800        66
    16.7000        60
    16.7200        68
    16.7400        64
    16.7600        54
    16.7800        58
    16.8000        74
    16.8200        60
    16.8400        64
    16.8600        50
    16.8800        56
    16.9000        62
    16.9200        54
    16.9400        72
    16.9600        62
    16.9800        42
    17.0000        56
    17.0200        58
    17.0400        64
    17.0600        60
    17.0800        62
    17.1000        60
    17.1200        60
    17.1400        54
    17.1600        50
    17.1800        58
    17.2000        52
    17.2200        48
    17.2400        82
    17.2600        50
    17.2800        72
    17.3000        58
    17.3200        64
    17.3400        54
    17.3600        42
    17.3800        48
    17.4000        60
    17.4200        34
    17.4400        56
    17.4600        54
    17.4800        70
    17.5000        62
    17.5200        62
    17.5400        56
    17.5600        60
    17.5800        52
    17.6000        56
    17.6200        66
    17.6400        58
    17.6600        62
    17.6800        62
    17.7000        48
    17.7200        54
    17.7400        54
    17.7600        58
    17.7800        66
    17.8000        54
    17.8200        48
    17.8400        48
    17.8600        56
    17.8800        56
    17.9000        64
    17.9200        54
    17.9400        48
    17.9600        52
    17.9800        60
    18.0000        54
    18.0200        66
    18.0400        48
    18.0600        64
    18.0800        60
    18.1000        48
    18.1200        58
    18.1400        44
    18.1600        56
    18.1800        52
    18.2000        50
    18.2200        44
    18.2400        62
    18.2600        68
    18.2800        66
    18.3000        42
    18.3200        60
    18.3400        50
    18.3600        54
    18.3800        66
    18.4000        56
    18.4200        56
    18.4400        54
    18.4600        48
    18.4800        62
    18.5000        64
    18.5200        62
    18.5400        48
    18.5600        48
    18.5800        66
    18.6000        56
    18.6200        66
    18.6400        82
    18.6600        64
    18.6800        82
    18.7000        80
    18.7200        82
    18.7400        78
    18.7600        80
    18.7800        80
    18.8000        54
    18.8200        68
    18.8400        66
    18.8600        62
    18.8800        60
    18.9000        36
    18.9200        54
    18.9400        64
    18.9600        54
    18.9800        52
    19.0000        62
    19.0200        64
    19.0400        50
    19.0600        48
    19.0800        44
    19.1000        42
    19.1200        56
    19.1400        54
    19.1600        66
    19.1800        62
    19.2000        54
    19.2200        60
    19.2400        54
    19.2600        68
    19.2800        50
    19.3000        50
    19.3200        50
    19.3400        62
    19.3600        48
    19.3800        44
    19.4000        48
    19.4200        52
    19.4400        54
    19.4600        46
    19.4800        56
    19.5000        60
    19.5200        52
    19.5400        46
    19.5600        64
    19.5800        68
    19.6000        42
    19.6200        66
    19.6400        52
    19.6600        60
    19.6800        48
    19.7000        72
    19.7200        50
    19.7400        50
    19.7600        56
    19.7800        54
    19.8000        52
    19.8200        52
    19.8400        40
    19.8600        52
    19.8800        40
    19.9000        54
    19.9200        50
    19.9400        54
    19.9600        64
    19.9800        50
    20.0000        48
    20.0200        68
    20.0400        40
    20.0600        50
    20.0800        66
    20.1000        42
    20.1200        50
    20.1400        56
    20.1600        60
    20.1800        44
    20.2000        42
    20.2200        44
    20.2400        50
    20.2600        54
    20.2800        54
    20.3000        60
    20.3200        50
    20.3400        60
    20.3600        46
    20.3800        42
