/////////////////////////////////////////////////////////////////////////////////
/// Profile Data Ascii Dump (XRD)                                             ///
/////////////////////////////////////////////////////////////////////////////////

  Group     : Swayze
  Data      : WS483
  File Name : WS483.RAW

# Profile Datafile
          comment             = Grossularite 
          date & time         = 08-04-09 06:49:21 

# Measurement Condition
    X-ray tube
          target              = Cu 
          voltage             = 40.0 (kV)
          current             = 30.0 (mA)
    Slits
          divergence slit     = 2.00000 (deg) 
          scatter slit        = 2.00000 (deg) 
          receiving slit      = 0.15000 (mm)  
    Scanning
          drive axis          = Theta-2Theta 
          scan range          =    4.000 -   65.000 
          scan mode           = Continuous Scan 
          scan speed          =   2.0000 (deg/min) 
          sampling pitch      =   0.0200 (deg) 
          preset time         =   0.60 (sec) 

# Data      [ Total No. = 3051 ]
  <2Theta>   <   I   >
     4.0000       164
     4.0200       178
     4.0400       170
     4.0600       170
     4.0800       178
     4.1000       166
     4.1200       206
     4.1400       194
     4.1600       190
     4.1800       160
     4.2000       134
     4.2200       202
     4.2400       168
     4.2600       178
     4.2800       166
     4.3000       198
     4.3200       184
     4.3400       152
     4.3600       170
     4.3800       164
     4.4000       180
     4.4200       166
     4.4400       182
     4.4600       180
     4.4800       152
     4.5000       148
     4.5200       146
     4.5400       158
     4.5600       190
     4.5800       142
     4.6000       164
     4.6200       182
     4.6400       186
     4.6600       166
     4.6800       166
     4.7000       158
     4.7200       160
     4.7400       158
     4.7600       170
     4.7800       138
     4.8000       156
     4.8200       172
     4.8400       194
     4.8600       150
     4.8800       184
     4.9000       158
     4.9200       170
     4.9400       154
     4.9600       168
     4.9800       166
     5.0000       166
     5.0200       172
     5.0400       154
     5.0600       164
     5.0800       164
     5.1000       164
     5.1200       166
     5.1400       174
     5.1600       168
     5.1800       164
     5.2000       142
     5.2200       144
     5.2400       152
     5.2600       148
     5.2800       178
     5.3000       152
     5.3200       158
     5.3400       164
     5.3600       174
     5.3800       164
     5.4000       160
     5.4200       182
     5.4400       180
     5.4600       164
     5.4800       156
     5.5000       164
     5.5200       178
     5.5400       146
     5.5600       138
     5.5800       186
     5.6000       170
     5.6200       156
     5.6400       180
     5.6600       178
     5.6800       144
     5.7000       188
     5.7200       174
     5.7400       166
     5.7600       158
     5.7800       172
     5.8000       178
     5.8200       156
     5.8400       162
     5.8600       170
     5.8800       136
     5.9000       146
     5.9200       168
     5.9400       158
     5.9600       152
     5.9800       162
     6.0000       144
     6.0200       138
     6.0400       162
     6.0600       160
     6.0800       144
     6.1000       178
     6.1200       142
     6.1400       168
     6.1600       162
     6.1800       132
     6.2000       142
     6.2200       150
     6.2400       134
     6.2600       154
     6.2800       150
     6.3000       168
     6.3200       126
     6.3400       170
     6.3600       146
     6.3800       154
     6.4000       146
     6.4200       152
     6.4400       144
     6.4600       142
     6.4800       154
     6.5000       146
     6.5200       138
     6.5400       138
     6.5600       138
     6.5800       126
     6.6000       128
     6.6200       112
     6.6400       134
     6.6600       154
     6.6800       130
     6.7000       120
     6.7200       102
     6.7400       132
     6.7600       128
     6.7800       134
     6.8000       136
     6.8200       114
     6.8400       124
     6.8600       136
     6.8800       140
     6.9000       156
     6.9200       134
     6.9400       134
     6.9600       120
     6.9800       128
     7.0000       120
     7.0200       120
     7.0400       124
     7.0600       116
     7.0800       112
     7.1000       148
     7.1200       124
     7.1400        92
     7.1600       136
     7.1800       118
     7.2000       110
     7.2200       112
     7.2400       120
     7.2600       122
     7.2800       102
     7.3000       136
     7.3200       112
     7.3400        98
     7.3600       116
     7.3800       114
     7.4000       112
     7.4200       114
     7.4400        98
     7.4600       110
     7.4800       102
     7.5000       114
     7.5200       116
     7.5400       138
     7.5600        98
     7.5800       102
     7.6000       106
     7.6200        98
     7.6400       102
     7.6600       116
     7.6800       112
     7.7000       114
     7.7200        98
     7.7400       122
     7.7600       112
     7.7800       124
     7.8000       112
     7.8200       114
     7.8400       102
     7.8600       122
     7.8800        96
     7.9000       112
     7.9200       106
     7.9400        90
     7.9600       112
     7.9800       112
     8.0000        92
     8.0200       124
     8.0400       112
     8.0600       106
     8.0800       106
     8.1000       100
     8.1200       106
     8.1400       114
     8.1600       106
     8.1800        98
     8.2000       102
     8.2200       114
     8.2400       112
     8.2600       100
     8.2800       114
     8.3000       116
     8.3200       120
     8.3400       106
     8.3600       132
     8.3800       124
     8.4000       130
     8.4200       132
     8.4400       108
     8.4600       130
     8.4800       120
     8.5000       108
     8.5200       116
     8.5400       128
     8.5600       118
     8.5800       132
     8.6000       126
     8.6200        98
     8.6400       102
     8.6600       106
     8.6800       136
     8.7000       128
     8.7200       100
     8.7400       108
     8.7600       130
     8.7800       120
     8.8000       124
     8.8200       144
     8.8400       110
     8.8600       108
     8.8800       112
     8.9000       108
     8.9200        88
     8.9400       130
     8.9600       108
     8.9800       106
     9.0000       112
     9.0200       114
     9.0400       106
     9.0600       116
     9.0800        86
     9.1000       150
     9.1200       122
     9.1400       132
     9.1600        98
     9.1800       102
     9.2000       124
     9.2200       128
     9.2400       116
     9.2600       110
     9.2800       126
     9.3000       146
     9.3200        98
     9.3400       104
     9.3600       116
     9.3800       118
     9.4000       124
     9.4200       104
     9.4400       116
     9.4600       134
     9.4800       120
     9.5000       102
     9.5200       106
     9.5400       114
     9.5600       116
     9.5800       106
     9.6000       116
     9.6200       106
     9.6400        98
     9.6600       102
     9.6800       112
     9.7000       124
     9.7200       110
     9.7400       108
     9.7600       118
     9.7800       104
     9.8000       114
     9.8200        92
     9.8400       114
     9.8600       116
     9.8800       116
     9.9000       118
     9.9200       110
     9.9400        96
     9.9600        96
     9.9800       116
    10.0000       102
    10.0200       108
    10.0400        96
    10.0600       114
    10.0800       102
    10.1000        96
    10.1200        98
    10.1400        92
    10.1600       106
    10.1800        96
    10.2000       116
    10.2200       126
    10.2400       100
    10.2600       122
    10.2800       102
    10.3000       106
    10.3200       102
    10.3400       106
    10.3600        90
    10.3800        98
    10.4000       102
    10.4200        90
    10.4400        86
    10.4600       104
    10.4800        84
    10.5000       104
    10.5200       116
    10.5400        98
    10.5600        92
    10.5800        94
    10.6000       104
    10.6200        88
    10.6400        98
    10.6600        88
    10.6800        82
    10.7000        94
    10.7200        94
    10.7400        96
    10.7600        78
    10.7800        88
    10.8000       124
    10.8200        84
    10.8400        80
    10.8600        86
    10.8800        92
    10.9000        86
    10.9200        90
    10.9400        98
    10.9600        82
    10.9800        90
    11.0000       104
    11.0200        98
    11.0400        76
    11.0600        76
    11.0800        84
    11.1000       100
    11.1200        74
    11.1400        88
    11.1600       104
    11.1800        84
    11.2000        98
    11.2200        78
    11.2400        94
    11.2600       108
    11.2800        76
    11.3000        88
    11.3200        84
    11.3400        74
    11.3600        98
    11.3800        98
    11.4000        76
    11.4200        70
    11.4400        92
    11.4600        90
    11.4800        90
    11.5000        78
    11.5200        78
    11.5400        84
    11.5600        68
    11.5800        96
    11.6000        68
    11.6200        82
    11.6400        82
    11.6600        86
    11.6800        64
    11.7000        70
    11.7200        74
    11.7400        84
    11.7600        86
    11.7800        84
    11.8000        98
    11.8200        90
    11.8400        78
    11.8600        78
    11.8800        86
    11.9000        92
    11.9200        84
    11.9400        80
    11.9600        76
    11.9800        78
    12.0000        66
    12.0200        82
    12.0400        78
    12.0600        98
    12.0800        64
    12.1000        82
    12.1200        96
    12.1400        80
    12.1600        74
    12.1800        58
    12.2000        78
    12.2200        78
    12.2400        68
    12.2600        84
    12.2800        70
    12.3000        84
    12.3200        74
    12.3400        80
    12.3600        74
    12.3800        78
    12.4000        66
    12.4200        92
    12.4400        72
    12.4600        58
    12.4800        70
    12.5000        58
    12.5200        70
    12.5400        76
    12.5600        64
    12.5800        76
    12.6000        66
    12.6200        74
    12.6400        74
    12.6600        72
    12.6800        78
    12.7000        76
    12.7200        76
    12.7400        68
    12.7600        74
    12.7800        74
    12.8000        64
    12.8200        66
    12.8400        68
    12.8600        56
    12.8800        74
    12.9000        70
    12.9200        60
    12.9400        70
    12.9600        60
    12.9800        68
    13.0000        72
    13.0200        70
    13.0400        64
    13.0600        70
    13.0800        80
    13.1000        76
    13.1200        66
    13.1400        82
    13.1600        70
    13.1800        80
    13.2000        80
    13.2200        68
    13.2400        76
    13.2600        74
    13.2800        70
    13.3000        66
    13.3200        64
    13.3400        72
    13.3600        68
    13.3800        66
    13.4000        82
    13.4200        66
    13.4400        60
    13.4600        74
    13.4800        74
    13.5000        46
    13.5200        82
    13.5400        56
    13.5600        52
    13.5800        64
    13.6000        78
    13.6200        58
    13.6400        72
    13.6600        60
    13.6800        64
    13.7000        58
    13.7200        56
    13.7400        68
    13.7600        70
    13.7800        56
    13.8000        64
    13.8200        62
    13.8400        66
    13.8600        64
    13.8800        54
    13.9000        62
    13.9200        76
    13.9400        64
    13.9600        62
    13.9800        74
    14.0000        50
    14.0200        44
    14.0400        62
    14.0600        68
    14.0800        64
    14.1000        54
    14.1200        58
    14.1400        72
    14.1600        62
    14.1800        48
    14.2000        70
    14.2200        66
    14.2400        54
    14.2600        70
    14.2800        58
    14.3000        64
    14.3200        62
    14.3400        50
    14.3600        66
    14.3800        64
    14.4000        56
    14.4200        64
    14.4400        62
    14.4600        56
    14.4800        58
    14.5000        58
    14.5200        46
    14.5400        54
    14.5600        54
    14.5800        64
    14.6000        70
    14.6200        70
    14.6400        42
    14.6600        64
    14.6800        60
    14.7000        44
    14.7200        44
    14.7400        56
    14.7600        64
    14.7800        62
    14.8000        62
    14.8200        54
    14.8400        52
    14.8600        60
    14.8800        36
    14.9000        58
    14.9200        54
    14.9400        50
    14.9600        48
    14.9800        62
    15.0000        66
    15.0200        68
    15.0400        52
    15.0600        38
    15.0800        72
    15.1000        64
    15.1200        60
    15.1400        54
    15.1600        56
    15.1800        60
    15.2000        58
    15.2200        46
    15.2400        66
    15.2600        42
    15.2800        56
    15.3000        58
    15.3200        52
    15.3400        50
    15.3600        56
    15.3800        68
    15.4000        56
    15.4200        38
    15.4400        52
    15.4600        56
    15.4800        48
    15.5000        76
    15.5200        56
    15.5400        54
    15.5600        60
    15.5800        60
    15.6000        52
    15.6200        60
    15.6400        54
    15.6600        50
    15.6800        52
    15.7000        44
    15.7200        44
    15.7400        62
    15.7600        40
    15.7800        66
    15.8000        48
    15.8200        46
    15.8400        48
    15.8600        56
    15.8800        54
    15.9000        48
    15.9200        56
    15.9400        62
    15.9600        36
    15.9800        56
    16.0000        62
    16.0200        44
    16.0400        48
    16.0600        36
    16.0800        38
    16.1000        50
    16.1200        38
    16.1400        44
    16.1600        50
    16.1800        58
    16.2000        52
    16.2200        40
    16.2400        54
    16.2600        48
    16.2800        56
    16.3000        66
    16.3200        54
    16.3400        48
    16.3600        54
    16.3800        54
    16.4000        44
    16.4200        50
    16.4400        42
    16.4600        66
    16.4800        52
    16.5000        44
    16.5200        48
    16.5400        60
    16.5600        62
    16.5800        52
    16.6000        54
    16.6200        54
    16.6400        62
    16.6600        62
    16.6800        58
    16.7000        46
    16.7200        62
    16.7400        56
    16.7600        56
    16.7800        48
    16.8000        62
    16.8200        36
    16.8400        46
    16.8600        50
    16.8800        62
    16.9000        52
    16.9200        38
    16.9400        64
    16.9600        62
    16.9800        48
    17.0000        44
    17.0200        44
    17.0400        44
    17.0600        64
    17.0800        40
    17.1000        40
    17.1200        48
    17.1400        40
    17.1600        64
    17.1800        48
    17.2000        46
    17.2200        46
    17.2400        58
    17.2600        50
    17.2800        48
    17.3000        48
    17.3200        46
    17.3400        46
    17.3600        72
    17.3800        48
    17.4000        58
    17.4200        56
    17.4400        42
    17.4600        38
    17.4800        48
    17.5000        60
    17.5200        38
    17.5400        48
    17.5600        52
    17.5800        52
    17.6000        38
    17.6200        56
    17.6400        54
    17.6600        60
    17.6800        58
    17.7000        54
    17.7200        44
    17.7400        52
    17.7600        40
    17.7800        52
    17.8000        48
    17.8200        52
    17.8400        42
    17.8600        42
    17.8800        58
    17.9000        48
    17.9200        50
    17.9400        54
    17.9600        52
    17.9800        40
    18.0000        46
    18.0200        36
    18.0400        46
    18.0600        50
    18.0800        50
    18.1000        52
    18.1200        48
    18.1400        38
    18.1600        34
    18.1800        48
    18.2000        54
    18.2200        50
    18.2400        62
    18.2600        48
    18.2800        36
    18.3000        68
    18.3200        56
    18.3400        54
    18.3600        46
    18.3800        48
    18.4000        40
    18.4200        38
    18.4400        46
    18.4600        34
    18.4800        48
    18.5000        46
    18.5200        50
    18.5400        52
    18.5600        46
    18.5800        32
    18.6000        36
    18.6200        42
    18.6400        40
    18.6600        44
    18.6800        54
    18.7000        40
    18.7200        42
    18.7400        52
    18.7600        44
    18.7800        52
    18.8000        42
    18.8200        38
    18.8400        54
    18.8600        52
    18.8800        50
    18.9000        44
    18.9200        38
    18.9400        44
    18.9600        52
    18.9800        42
    19.0000        50
    19.0200        40
    19.0400        56
    19.0600        52
    19.0800        46
    19.1000        52
    19.1200        46
    19.1400        50
    19.1600        46
    19.1800        44
    19.2000        32
    19.2200        60
    19.2400        30
    19.2600        42
    19.2800        48
    19.3000        44
    19.3200        38
    19.3400        44
    19.3600        54
    19.3800        40
    19.4000        46
    19.4200        42
    19.4400        36
    19.4600        54
    19.4800        50
    19.5000        48
    19.5200        46
    19.5400        34
    19.5600        50
    19.5800        38
    19.6000        32
    19.6200        46
    19.6400        40
    19.6600        36
    19.6800        48
    19.7000        44
    19.7200        40
    19.7400        52
    19.7600        32
    19.7800        60
    19.8000        30
    19.8200        42
    19.8400        46
    19.8600        44
    19.8800        44
    19.9000        42
    19.9200        42
    19.9400        54
    19.9600        50
    19.9800        42
    20.0000        40
    20.0200        48
    20.0400        38
    20.0600        42
    20.0800        38
    20.1000        38
    20.1200        42
    20.1400        50
    20.1600        32
    20.1800        48
    20.2000        32
    20.2200        40
    20.2400        32
    20.2600        32
    20.2800        40
    20.3000        42
    20.3200        38
    20.3400        44
    20.3600        28
    20.3800        40
