/////////////////////////////////////////////////////////////////////////////////
/// Profile Data Ascii Dump (XRD)                                             ///
/////////////////////////////////////////////////////////////////////////////////

  Group     : Swayze
  Data      : WS661
  File Name : WS661.RAW

# Profile Datafile
          comment             = Annite-ferrous biotite 
          date & time         = 08-04-08 08:59:07 

# Measurement Condition
    X-ray tube
          target              = Cu 
          voltage             = 40.0 (kV)
          current             = 30.0 (mA)
    Slits
          divergence slit     = 2.00000 (deg) 
          scatter slit        = 2.00000 (deg) 
          receiving slit      = 0.15000 (mm)  
    Scanning
          drive axis          = Theta-2Theta 
          scan range          =    4.000 -   65.000 
          scan mode           = Continuous Scan 
          scan speed          =   2.0000 (deg/min) 
          sampling pitch      =   0.0200 (deg) 
          preset time         =   0.60 (sec) 

# Data      [ Total No. = 3051 ]
  <2Theta>   <   I   >
     4.0000       178
     4.0200       198
     4.0400       190
     4.0600       220
     4.0800       206
     4.1000       218
     4.1200       180
     4.1400       186
     4.1600       152
     4.1800       194
     4.2000       176
     4.2200       174
     4.2400       216
     4.2600       180
     4.2800       202
     4.3000       200
     4.3200       202
     4.3400       194
     4.3600       178
     4.3800       178
     4.4000       162
     4.4200       166
     4.4400       186
     4.4600       180
     4.4800       178
     4.5000       164
     4.5200       152
     4.5400       186
     4.5600       148
     4.5800       150
     4.6000       174
     4.6200       144
     4.6400       166
     4.6600       146
     4.6800       152
     4.7000       156
     4.7200       170
     4.7400       178
     4.7600       158
     4.7800       168
     4.8000       158
     4.8200       176
     4.8400       170
     4.8600       172
     4.8800       160
     4.9000       174
     4.9200       168
     4.9400       158
     4.9600       158
     4.9800       160
     5.0000       178
     5.0200       142
     5.0400       162
     5.0600       152
     5.0800       174
     5.1000       170
     5.1200       184
     5.1400       168
     5.1600       164
     5.1800       168
     5.2000       152
     5.2200       152
     5.2400       156
     5.2600       182
     5.2800       160
     5.3000       154
     5.3200       170
     5.3400       160
     5.3600       162
     5.3800       172
     5.4000       166
     5.4200       156
     5.4400       170
     5.4600       174
     5.4800       134
     5.5000       142
     5.5200       146
     5.5400       150
     5.5600       160
     5.5800       168
     5.6000       160
     5.6200       160
     5.6400       142
     5.6600       132
     5.6800       160
     5.7000       140
     5.7200       152
     5.7400       170
     5.7600       146
     5.7800       172
     5.8000       144
     5.8200       132
     5.8400       144
     5.8600       138
     5.8800       138
     5.9000       162
     5.9200       150
     5.9400       138
     5.9600       160
     5.9800       164
     6.0000       150
     6.0200       156
     6.0400       164
     6.0600       154
     6.0800       150
     6.1000       148
     6.1200       176
     6.1400       162
     6.1600       142
     6.1800       156
     6.2000       136
     6.2200       152
     6.2400       158
     6.2600       132
     6.2800       146
     6.3000       154
     6.3200       190
     6.3400       152
     6.3600       142
     6.3800       144
     6.4000       148
     6.4200       148
     6.4400       152
     6.4600       154
     6.4800       140
     6.5000       150
     6.5200       138
     6.5400       132
     6.5600       140
     6.5800       126
     6.6000       142
     6.6200       136
     6.6400       142
     6.6600       120
     6.6800       138
     6.7000       136
     6.7200       132
     6.7400       148
     6.7600       120
     6.7800       140
     6.8000       142
     6.8200       156
     6.8400       118
     6.8600       122
     6.8800       116
     6.9000       118
     6.9200       126
     6.9400       152
     6.9600       124
     6.9800       128
     7.0000       126
     7.0200       132
     7.0400       118
     7.0600       120
     7.0800       120
     7.1000       130
     7.1200       116
     7.1400       132
     7.1600       134
     7.1800       130
     7.2000       138
     7.2200       124
     7.2400       118
     7.2600       126
     7.2800       130
     7.3000       120
     7.3200       132
     7.3400       116
     7.3600       130
     7.3800       114
     7.4000       158
     7.4200       114
     7.4400       126
     7.4600       154
     7.4800       148
     7.5000       140
     7.5200       126
     7.5400       132
     7.5600       148
     7.5800       144
     7.6000       138
     7.6200       146
     7.6400       128
     7.6600       134
     7.6800       144
     7.7000       138
     7.7200       130
     7.7400       152
     7.7600       134
     7.7800       136
     7.8000       188
     7.8200       160
     7.8400       164
     7.8600       214
     7.8800       198
     7.9000       190
     7.9200       178
     7.9400       172
     7.9600       190
     7.9800       190
     8.0000       184
     8.0200       182
     8.0400       186
     8.0600       190
     8.0800       198
     8.1000       214
     8.1200       236
     8.1400       206
     8.1600       214
     8.1800       262
     8.2000       294
     8.2200       264
     8.2400       330
     8.2600       328
     8.2800       384
     8.3000       420
     8.3200       464
     8.3400       496
     8.3600       614
     8.3800       728
     8.4000       732
     8.4200       872
     8.4400       930
     8.4600      1038
     8.4800      1210
     8.5000      1314
     8.5200      1450
     8.5400      1782
     8.5600      2120
     8.5800      2460
     8.6000      2838
     8.6200      3492
     8.6400      4316
     8.6600      5836
     8.6800      8262
     8.7000     11294
     8.7200     15064
     8.7400     16798
     8.7600     15388
     8.7800     11400
     8.8000      7082
     8.8200      4278
     8.8400      2312
     8.8600      1262
     8.8800       782
     8.9000       596
     8.9200       536
     8.9400       470
     8.9600       416
     8.9800       450
     9.0000       390
     9.0200       320
     9.0400       274
     9.0600       238
     9.0800       204
     9.1000       166
     9.1200       154
     9.1400       130
     9.1600       122
     9.1800       134
     9.2000       144
     9.2200       140
     9.2400       124
     9.2600       128
     9.2800       138
     9.3000       122
     9.3200       124
     9.3400        98
     9.3600       124
     9.3800       136
     9.4000       122
     9.4200       120
     9.4400       100
     9.4600       116
     9.4800       142
     9.5000       138
     9.5200       118
     9.5400       126
     9.5600       116
     9.5800       132
     9.6000       104
     9.6200       104
     9.6400       106
     9.6600       126
     9.6800       110
     9.7000       102
     9.7200       112
     9.7400       140
     9.7600        92
     9.7800       112
     9.8000       110
     9.8200       104
     9.8400       116
     9.8600       102
     9.8800       102
     9.9000       110
     9.9200       104
     9.9400       118
     9.9600       120
     9.9800       118
    10.0000       100
    10.0200        98
    10.0400       112
    10.0600       122
    10.0800        94
    10.1000        98
    10.1200       108
    10.1400       106
    10.1600        98
    10.1800       128
    10.2000        92
    10.2200        98
    10.2400       102
    10.2600       102
    10.2800       114
    10.3000       118
    10.3200       108
    10.3400       104
    10.3600       108
    10.3800        98
    10.4000        84
    10.4200        98
    10.4400       106
    10.4600       106
    10.4800        86
    10.5000       100
    10.5200        80
    10.5400        96
    10.5600       114
    10.5800        86
    10.6000       110
    10.6200        82
    10.6400        94
    10.6600       112
    10.6800        94
    10.7000       106
    10.7200       104
    10.7400        84
    10.7600       104
    10.7800        90
    10.8000        80
    10.8200        98
    10.8400        82
    10.8600        90
    10.8800       106
    10.9000        90
    10.9200        72
    10.9400        94
    10.9600        86
    10.9800        98
    11.0000        96
    11.0200        84
    11.0400        94
    11.0600        80
    11.0800        80
    11.1000       100
    11.1200        82
    11.1400        76
    11.1600        88
    11.1800        84
    11.2000        68
    11.2200        98
    11.2400        84
    11.2600        94
    11.2800        80
    11.3000        84
    11.3200        74
    11.3400        74
    11.3600        80
    11.3800        90
    11.4000        80
    11.4200        78
    11.4400        80
    11.4600       102
    11.4800        90
    11.5000        98
    11.5200        74
    11.5400        92
    11.5600        76
    11.5800        84
    11.6000        82
    11.6200        80
    11.6400        66
    11.6600        62
    11.6800        90
    11.7000        72
    11.7200        70
    11.7400       116
    11.7600        82
    11.7800        76
    11.8000        76
    11.8200        84
    11.8400        94
    11.8600        74
    11.8800        78
    11.9000        80
    11.9200        60
    11.9400       104
    11.9600        74
    11.9800        70
    12.0000        86
    12.0200        84
    12.0400        82
    12.0600        76
    12.0800        96
    12.1000        60
    12.1200        82
    12.1400        76
    12.1600        86
    12.1800       100
    12.2000       100
    12.2200        72
    12.2400        74
    12.2600        70
    12.2800        80
    12.3000        82
    12.3200        86
    12.3400        84
    12.3600        66
    12.3800        72
    12.4000        88
    12.4200        74
    12.4400        72
    12.4600        78
    12.4800        96
    12.5000        60
    12.5200        82
    12.5400        62
    12.5600        88
    12.5800        78
    12.6000        72
    12.6200        62
    12.6400        78
    12.6600        66
    12.6800        60
    12.7000        66
    12.7200        90
    12.7400        88
    12.7600        78
    12.7800        60
    12.8000        80
    12.8200        80
    12.8400        74
    12.8600        78
    12.8800        74
    12.9000        58
    12.9200        82
    12.9400        90
    12.9600        82
    12.9800        72
    13.0000        74
    13.0200        76
    13.0400        78
    13.0600        84
    13.0800        68
    13.1000        68
    13.1200        68
    13.1400        66
    13.1600        82
    13.1800        70
    13.2000        86
    13.2200        56
    13.2400        82
    13.2600        56
    13.2800        78
    13.3000        68
    13.3200        66
    13.3400        70
    13.3600        78
    13.3800        84
    13.4000        78
    13.4200        82
    13.4400        62
    13.4600        56
    13.4800        66
    13.5000        72
    13.5200        64
    13.5400        74
    13.5600        82
    13.5800        80
    13.6000        74
    13.6200        78
    13.6400        74
    13.6600        76
    13.6800        70
    13.7000        62
    13.7200        66
    13.7400        70
    13.7600        68
    13.7800        58
    13.8000        60
    13.8200        66
    13.8400        60
    13.8600        60
    13.8800        62
    13.9000        60
    13.9200        62
    13.9400        60
    13.9600        78
    13.9800        52
    14.0000        56
    14.0200        62
    14.0400        80
    14.0600        58
    14.0800        58
    14.1000        48
    14.1200        76
    14.1400        72
    14.1600        54
    14.1800        66
    14.2000        52
    14.2200        66
    14.2400        72
    14.2600        72
    14.2800        44
    14.3000        64
    14.3200        62
    14.3400        78
    14.3600        56
    14.3800        54
    14.4000        66
    14.4200        70
    14.4400        64
    14.4600        54
    14.4800        58
    14.5000        54
    14.5200        48
    14.5400        48
    14.5600        68
    14.5800        56
    14.6000        60
    14.6200        70
    14.6400        70
    14.6600        64
    14.6800        70
    14.7000        56
    14.7200        62
    14.7400        54
    14.7600        58
    14.7800        66
    14.8000        60
    14.8200        58
    14.8400        60
    14.8600        44
    14.8800        66
    14.9000        76
    14.9200        46
    14.9400        60
    14.9600        64
    14.9800        64
    15.0000        50
    15.0200        52
    15.0400        64
    15.0600        46
    15.0800        54
    15.1000        60
    15.1200        58
    15.1400        46
    15.1600        58
    15.1800        86
    15.2000        60
    15.2200        76
    15.2400        64
    15.2600        52
    15.2800        62
    15.3000        72
    15.3200        52
    15.3400        62
    15.3600        72
    15.3800        64
    15.4000        58
    15.4200        54
    15.4400        60
    15.4600        70
    15.4800        62
    15.5000        64
    15.5200        64
    15.5400        62
    15.5600        48
    15.5800        62
    15.6000        64
    15.6200        66
    15.6400        54
    15.6600        52
    15.6800        58
    15.7000        52
    15.7200        76
    15.7400        74
    15.7600        66
    15.7800        48
    15.8000        70
    15.8200        50
    15.8400        70
    15.8600        58
    15.8800        64
    15.9000        76
    15.9200        60
    15.9400        60
    15.9600        60
    15.9800        56
    16.0000        44
    16.0200        56
    16.0400        72
    16.0600        62
    16.0800        62
    16.1000        62
    16.1200        54
    16.1400        56
    16.1600        62
    16.1800        54
    16.2000        54
    16.2200        62
    16.2400        58
    16.2600        66
    16.2800        52
    16.3000        64
    16.3200        38
    16.3400        58
    16.3600        74
    16.3800        50
    16.4000        56
    16.4200        70
    16.4400        68
    16.4600        56
    16.4800        60
    16.5000        72
    16.5200        58
    16.5400        54
    16.5600        56
    16.5800        50
    16.6000        58
    16.6200        70
    16.6400        50
    16.6600        78
    16.6800        74
    16.7000        68
    16.7200        64
    16.7400        66
    16.7600        68
    16.7800        64
    16.8000        48
    16.8200        70
    16.8400        80
    16.8600        72
    16.8800        66
    16.9000        60
    16.9200        52
    16.9400        72
    16.9600        68
    16.9800        66
    17.0000        68
    17.0200        66
    17.0400        80
    17.0600        76
    17.0800        72
    17.1000        72
    17.1200       100
    17.1400        80
    17.1600        88
    17.1800        92
    17.2000       108
    17.2200        80
    17.2400       100
    17.2600       118
    17.2800       144
    17.3000       154
    17.3200       170
    17.3400       162
    17.3600       194
    17.3800       212
    17.4000       248
    17.4200       294
    17.4400       384
    17.4600       442
    17.4800       584
    17.5000       748
    17.5200      1008
    17.5400      1282
    17.5600      1582
    17.5800      1756
    17.6000      1628
    17.6200      1328
    17.6400      1010
    17.6600       672
    17.6800       396
    17.7000       226
    17.7200       180
    17.7400       134
    17.7600       102
    17.7800       110
    17.8000        94
    17.8200        94
    17.8400        90
    17.8600        84
    17.8800        86
    17.9000        70
    17.9200        78
    17.9400        62
    17.9600        64
    17.9800        64
    18.0000        62
    18.0200        58
    18.0400        58
    18.0600        52
    18.0800        52
    18.1000        46
    18.1200        60
    18.1400        52
    18.1600        62
    18.1800        68
    18.2000        70
    18.2200        66
    18.2400        48
    18.2600        54
    18.2800        62
    18.3000        56
    18.3200        48
    18.3400        50
    18.3600        52
    18.3800        52
    18.4000        44
    18.4200        56
    18.4400        60
    18.4600        46
    18.4800        44
    18.5000        66
    18.5200        40
    18.5400        34
    18.5600        52
    18.5800        56
    18.6000        58
    18.6200        50
    18.6400        40
    18.6600        62
    18.6800        56
    18.7000        42
    18.7200        44
    18.7400        40
    18.7600        58
    18.7800        64
    18.8000        58
    18.8200        58
    18.8400        62
    18.8600        54
    18.8800        80
    18.9000        62
    18.9200        52
    18.9400        44
    18.9600        80
    18.9800        72
    19.0000        52
    19.0200        66
    19.0400        48
    19.0600        60
    19.0800        62
    19.1000        66
    19.1200        60
    19.1400        56
    19.1600        58
    19.1800        74
    19.2000        44
    19.2200        60
    19.2400        64
    19.2600        50
    19.2800        52
    19.3000        56
    19.3200        60
    19.3400        60
    19.3600        62
    19.3800        58
    19.4000        40
    19.4200        64
    19.4400        50
    19.4600        50
    19.4800        44
    19.5000        58
    19.5200        48
    19.5400        54
    19.5600        50
    19.5800        50
    19.6000        50
    19.6200        54
    19.6400        60
    19.6600        60
    19.6800        44
    19.7000        42
    19.7200        54
    19.7400        46
    19.7600        60
    19.7800        46
    19.8000        44
    19.8200        46
    19.8400        50
    19.8600        50
    19.8800        56
    19.9000        60
    19.9200        58
    19.9400        52
    19.9600        62
    19.9800        40
    20.0000        46
    20.0200        44
    20.0400        52
    20.0600        62
    20.0800        44
    20.1000        64
    20.1200        54
    20.1400        54
    20.1600        40
    20.1800        62
    20.2000        50
    20.2200        56
    20.2400        56
    20.2600        44
    20.2800        64
    20.3000        50
    20.3200        46
    20.3400        58
    20.3600        62
