/////////////////////////////////////////////////////////////////////////////////
/// Profile Data Ascii Dump (XRD)                                             ///
/////////////////////////////////////////////////////////////////////////////////

  Group     : GPlumlee
  Data      : WS708
  File Name : WS708.RAW

# Profile Datafile
          comment             = Bytownite-Hoefen 
          date & time         = 08-04-16 08:15:19 

# Measurement Condition
    X-ray tube
          target              = Cu 
          voltage             = 40.0 (kV)
          current             = 30.0 (mA)
    Slits
          divergence slit     = 2.00000 (deg) 
          scatter slit        = 2.00000 (deg) 
          receiving slit      = 0.15000 (mm)  
    Scanning
          drive axis          = Theta-2Theta 
          scan range          =    4.000 -   65.000 
          scan mode           = Continuous Scan 
          scan speed          =   2.0000 (deg/min) 
          sampling pitch      =   0.0200 (deg) 
          preset time         =   0.60 (sec) 

# Data      [ Total No. = 3051 ]
  <2Theta>   <   I   >
     4.0000       190
     4.0200       166
     4.0400       184
     4.0600       198
     4.0800       162
     4.1000       168
     4.1200       174
     4.1400       182
     4.1600       150
     4.1800       194
     4.2000       186
     4.2200       170
     4.2400       178
     4.2600       180
     4.2800       148
     4.3000       186
     4.3200       140
     4.3400       164
     4.3600       168
     4.3800       164
     4.4000       162
     4.4200       158
     4.4400       154
     4.4600       170
     4.4800       142
     4.5000       140
     4.5200       178
     4.5400       166
     4.5600       140
     4.5800       136
     4.6000       158
     4.6200       150
     4.6400       170
     4.6600       160
     4.6800       166
     4.7000       162
     4.7200       142
     4.7400       154
     4.7600       158
     4.7800       154
     4.8000       158
     4.8200       152
     4.8400       146
     4.8600       146
     4.8800       140
     4.9000       130
     4.9200       172
     4.9400       136
     4.9600       160
     4.9800       154
     5.0000       168
     5.0200       158
     5.0400       160
     5.0600       148
     5.0800       160
     5.1000       148
     5.1200       178
     5.1400       144
     5.1600       152
     5.1800       156
     5.2000       150
     5.2200       148
     5.2400       158
     5.2600       178
     5.2800       168
     5.3000       144
     5.3200       168
     5.3400       146
     5.3600       142
     5.3800       148
     5.4000       156
     5.4200       150
     5.4400       128
     5.4600       140
     5.4800       166
     5.5000       152
     5.5200       170
     5.5400       150
     5.5600       162
     5.5800       132
     5.6000       154
     5.6200       164
     5.6400       160
     5.6600       148
     5.6800       160
     5.7000       140
     5.7200       140
     5.7400       168
     5.7600       164
     5.7800       158
     5.8000       162
     5.8200       150
     5.8400       156
     5.8600       158
     5.8800       142
     5.9000       154
     5.9200       132
     5.9400       138
     5.9600       158
     5.9800       144
     6.0000       140
     6.0200       160
     6.0400       132
     6.0600       166
     6.0800       154
     6.1000       140
     6.1200       166
     6.1400       158
     6.1600       138
     6.1800       140
     6.2000       138
     6.2200       130
     6.2400       152
     6.2600       142
     6.2800       144
     6.3000       124
     6.3200       140
     6.3400       134
     6.3600       166
     6.3800       138
     6.4000       130
     6.4200       120
     6.4400       134
     6.4600       158
     6.4800       120
     6.5000       118
     6.5200       140
     6.5400       112
     6.5600       130
     6.5800       140
     6.6000       148
     6.6200        98
     6.6400       120
     6.6600       146
     6.6800       126
     6.7000       120
     6.7200       110
     6.7400       122
     6.7600       114
     6.7800       124
     6.8000       114
     6.8200       140
     6.8400       124
     6.8600       142
     6.8800       142
     6.9000       106
     6.9200       114
     6.9400       114
     6.9600       122
     6.9800       130
     7.0000       126
     7.0200       116
     7.0400       120
     7.0600       116
     7.0800       124
     7.1000       120
     7.1200       110
     7.1400       106
     7.1600       120
     7.1800       110
     7.2000       128
     7.2200       106
     7.2400       120
     7.2600       114
     7.2800       106
     7.3000       108
     7.3200        96
     7.3400       108
     7.3600       110
     7.3800       122
     7.4000       112
     7.4200       104
     7.4400       120
     7.4600       100
     7.4800       124
     7.5000        90
     7.5200       100
     7.5400       110
     7.5600       100
     7.5800        96
     7.6000       124
     7.6200       122
     7.6400       104
     7.6600       118
     7.6800       106
     7.7000       128
     7.7200       122
     7.7400       116
     7.7600        92
     7.7800       120
     7.8000       104
     7.8200       102
     7.8400        92
     7.8600        88
     7.8800       116
     7.9000        92
     7.9200       118
     7.9400       116
     7.9600       118
     7.9800        90
     8.0000       104
     8.0200       120
     8.0400       108
     8.0600       114
     8.0800       114
     8.1000        80
     8.1200       116
     8.1400       128
     8.1600       110
     8.1800       108
     8.2000       112
     8.2200       104
     8.2400       112
     8.2600       102
     8.2800       110
     8.3000       116
     8.3200       110
     8.3400        98
     8.3600       112
     8.3800       126
     8.4000       110
     8.4200       122
     8.4400        92
     8.4600       116
     8.4800       124
     8.5000       106
     8.5200       112
     8.5400       104
     8.5600       100
     8.5800        90
     8.6000       110
     8.6200       122
     8.6400       112
     8.6600       112
     8.6800       112
     8.7000       126
     8.7200       104
     8.7400       108
     8.7600        92
     8.7800       108
     8.8000       118
     8.8200       112
     8.8400       118
     8.8600       100
     8.8800        96
     8.9000       118
     8.9200       102
     8.9400       114
     8.9600       110
     8.9800       108
     9.0000       100
     9.0200       138
     9.0400       104
     9.0600       116
     9.0800       110
     9.1000       106
     9.1200       118
     9.1400       126
     9.1600       108
     9.1800       102
     9.2000       114
     9.2200       108
     9.2400        96
     9.2600       104
     9.2800       122
     9.3000       134
     9.3200        98
     9.3400       138
     9.3600       108
     9.3800       100
     9.4000       114
     9.4200       110
     9.4400       106
     9.4600       114
     9.4800       118
     9.5000       110
     9.5200        98
     9.5400       128
     9.5600        96
     9.5800       112
     9.6000       114
     9.6200       124
     9.6400       110
     9.6600       104
     9.6800       110
     9.7000        84
     9.7200        94
     9.7400        96
     9.7600       114
     9.7800       100
     9.8000        90
     9.8200       116
     9.8400       106
     9.8600        94
     9.8800       106
     9.9000        98
     9.9200        94
     9.9400        86
     9.9600       106
     9.9800       106
    10.0000       104
    10.0200       110
    10.0400       100
    10.0600       100
    10.0800        96
    10.1000        86
    10.1200       108
    10.1400       106
    10.1600        84
    10.1800        96
    10.2000       108
    10.2200        88
    10.2400        92
    10.2600        82
    10.2800        98
    10.3000       106
    10.3200       100
    10.3400       100
    10.3600       100
    10.3800       100
    10.4000        90
    10.4200        86
    10.4400       102
    10.4600       112
    10.4800        92
    10.5000       100
    10.5200       104
    10.5400       102
    10.5600        86
    10.5800        88
    10.6000       102
    10.6200        98
    10.6400        86
    10.6600        96
    10.6800       100
    10.7000        78
    10.7200        86
    10.7400        92
    10.7600        88
    10.7800       102
    10.8000        74
    10.8200        96
    10.8400        98
    10.8600       108
    10.8800        88
    10.9000        74
    10.9200        88
    10.9400        84
    10.9600        86
    10.9800        86
    11.0000        90
    11.0200        76
    11.0400        96
    11.0600        94
    11.0800        98
    11.1000        86
    11.1200        88
    11.1400        80
    11.1600        84
    11.1800        92
    11.2000        90
    11.2200        92
    11.2400        94
    11.2600        90
    11.2800        96
    11.3000        76
    11.3200        76
    11.3400        76
    11.3600        94
    11.3800        84
    11.4000        78
    11.4200        86
    11.4400        72
    11.4600        76
    11.4800        82
    11.5000        78
    11.5200        84
    11.5400        74
    11.5600        66
    11.5800        86
    11.6000        86
    11.6200        70
    11.6400       102
    11.6600        86
    11.6800        86
    11.7000        74
    11.7200        68
    11.7400        92
    11.7600        76
    11.7800        80
    11.8000        90
    11.8200        76
    11.8400        80
    11.8600        88
    11.8800        84
    11.9000        78
    11.9200        74
    11.9400        62
    11.9600        86
    11.9800        74
    12.0000        92
    12.0200        74
    12.0400        94
    12.0600        80
    12.0800        70
    12.1000        78
    12.1200        92
    12.1400        96
    12.1600        84
    12.1800        74
    12.2000        74
    12.2200        92
    12.2400        80
    12.2600        78
    12.2800        70
    12.3000        76
    12.3200        82
    12.3400        84
    12.3600        94
    12.3800        82
    12.4000        68
    12.4200        84
    12.4400        60
    12.4600        64
    12.4800        62
    12.5000        74
    12.5200        80
    12.5400        62
    12.5600        88
    12.5800        68
    12.6000        72
    12.6200        74
    12.6400        98
    12.6600        80
    12.6800        84
    12.7000        60
    12.7200        74
    12.7400        80
    12.7600        70
    12.7800        94
    12.8000        90
    12.8200        72
    12.8400        72
    12.8600        72
    12.8800        82
    12.9000        74
    12.9200        68
    12.9400        72
    12.9600        82
    12.9800        78
    13.0000        84
    13.0200        72
    13.0400        72
    13.0600        80
    13.0800        72
    13.1000        76
    13.1200        56
    13.1400        74
    13.1600        80
    13.1800        70
    13.2000        72
    13.2200        68
    13.2400        74
    13.2600        70
    13.2800        88
    13.3000        56
    13.3200        82
    13.3400        72
    13.3600        82
    13.3800        94
    13.4000        78
    13.4200        74
    13.4400        84
    13.4600        92
    13.4800       102
    13.5000        98
    13.5200       112
    13.5400        96
    13.5600       120
    13.5800       126
    13.6000       120
    13.6200        90
    13.6400        86
    13.6600        86
    13.6800        72
    13.7000        72
    13.7200        70
    13.7400        72
    13.7600        96
    13.7800        64
    13.8000        80
    13.8200        70
    13.8400        70
    13.8600        76
    13.8800        74
    13.9000        68
    13.9200        84
    13.9400        66
    13.9600        74
    13.9800        66
    14.0000        82
    14.0200        68
    14.0400        86
    14.0600        66
    14.0800        58
    14.1000        58
    14.1200        74
    14.1400        68
    14.1600        48
    14.1800        72
    14.2000        64
    14.2200        66
    14.2400        52
    14.2600        82
    14.2800        48
    14.3000        64
    14.3200        66
    14.3400        60
    14.3600        84
    14.3800        78
    14.4000        60
    14.4200        50
    14.4400        48
    14.4600        76
    14.4800        56
    14.5000        68
    14.5200        88
    14.5400        78
    14.5600        56
    14.5800        64
    14.6000        64
    14.6200        54
    14.6400        56
    14.6600        62
    14.6800        70
    14.7000        64
    14.7200        58
    14.7400        54
    14.7600        58
    14.7800        66
    14.8000        64
    14.8200        52
    14.8400        70
    14.8600        56
    14.8800        54
    14.9000        52
    14.9200        72
    14.9400        76
    14.9600        74
    14.9800        64
    15.0000        58
    15.0200        58
    15.0400        54
    15.0600        58
    15.0800        64
    15.1000        60
    15.1200        52
    15.1400        56
    15.1600        64
    15.1800        68
    15.2000        72
    15.2200        70
    15.2400        64
    15.2600        56
    15.2800        64
    15.3000        64
    15.3200        58
    15.3400        70
    15.3600        62
    15.3800        60
    15.4000        62
    15.4200        64
    15.4400        62
    15.4600        50
    15.4800        56
    15.5000        74
    15.5200        70
    15.5400        52
    15.5600        52
    15.5800        54
    15.6000        54
    15.6200        46
    15.6400        68
    15.6600        60
    15.6800        66
    15.7000        48
    15.7200        62
    15.7400        58
    15.7600        64
    15.7800        58
    15.8000        64
    15.8200        70
    15.8400        54
    15.8600        52
    15.8800        52
    15.9000        62
    15.9200        66
    15.9400        64
    15.9600        56
    15.9800        68
    16.0000        52
    16.0200        64
    16.0400        72
    16.0600        56
    16.0800        60
    16.1000        58
    16.1200        72
    16.1400        60
    16.1600        48
    16.1800        62
    16.2000        52
    16.2200        62
    16.2400        52
    16.2600        54
    16.2800        62
    16.3000        34
    16.3200        48
    16.3400        64
    16.3600        54
    16.3800        52
    16.4000        62
    16.4200        54
    16.4400        60
    16.4600        62
    16.4800        66
    16.5000        60
    16.5200        48
    16.5400        48
    16.5600        56
    16.5800        60
    16.6000        48
    16.6200        58
    16.6400        58
    16.6600        56
    16.6800        42
    16.7000        54
    16.7200        50
    16.7400        54
    16.7600        60
    16.7800        48
    16.8000        48
    16.8200        52
    16.8400        76
    16.8600        66
    16.8800        66
    16.9000        52
    16.9200        60
    16.9400        52
    16.9600        48
    16.9800        64
    17.0000        48
    17.0200        42
    17.0400        60
    17.0600        58
    17.0800        42
    17.1000        60
    17.1200        52
    17.1400        52
    17.1600        44
    17.1800        64
    17.2000        60
    17.2200        58
    17.2400        54
    17.2600        56
    17.2800        48
    17.3000        62
    17.3200        58
    17.3400        68
    17.3600        56
    17.3800        46
    17.4000        44
    17.4200        54
    17.4400        54
    17.4600        62
    17.4800        56
    17.5000        54
    17.5200        54
    17.5400        56
    17.5600        48
    17.5800        62
    17.6000        50
    17.6200        46
    17.6400        64
    17.6600        64
    17.6800        64
    17.7000        60
    17.7200        64
    17.7400        60
    17.7600        60
    17.7800        52
    17.8000        60
    17.8200        54
    17.8400        56
    17.8600        58
    17.8800        54
    17.9000        46
    17.9200        72
    17.9400        52
    17.9600        58
    17.9800        60
    18.0000        62
    18.0200        70
    18.0400        50
    18.0600        46
    18.0800        50
    18.1000        50
    18.1200        62
    18.1400        64
    18.1600        68
    18.1800        52
    18.2000        60
    18.2200        40
    18.2400        42
    18.2600        56
    18.2800        58
    18.3000        46
    18.3200        48
    18.3400        60
    18.3600        56
    18.3800        52
    18.4000        56
    18.4200        56
    18.4400        46
    18.4600        66
    18.4800        50
    18.5000        64
    18.5200        56
    18.5400        60
    18.5600        74
    18.5800        42
    18.6000        58
    18.6200        74
    18.6400        64
    18.6600        70
    18.6800        92
    18.7000        82
    18.7200       102
    18.7400       124
    18.7600       104
    18.7800       154
    18.8000       140
    18.8200       148
    18.8400       124
    18.8600        92
    18.8800        78
    18.9000        66
    18.9200        56
    18.9400        60
    18.9600        50
    18.9800        50
    19.0000        52
    19.0200        54
    19.0400        54
    19.0600        58
    19.0800        54
    19.1000        64
    19.1200        60
    19.1400        36
    19.1600        52
    19.1800        42
    19.2000        50
    19.2200        56
    19.2400        46
    19.2600        60
    19.2800        48
    19.3000        66
    19.3200        58
    19.3400        56
    19.3600        54
    19.3800        46
    19.4000        44
    19.4200        52
    19.4400        36
    19.4600        46
    19.4800        52
    19.5000        44
    19.5200        60
    19.5400        60
    19.5600        52
    19.5800        40
    19.6000        50
    19.6200        52
    19.6400        58
    19.6600        48
    19.6800        68
    19.7000        60
    19.7200        48
    19.7400        58
    19.7600        48
    19.7800        66
    19.8000        58
    19.8200        56
    19.8400        54
    19.8600        50
    19.8800        66
    19.9000        46
    19.9200        54
    19.9400        46
    19.9600        54
    19.9800        46
    20.0000        60
    20.0200        60
    20.0400        66
    20.0600        48
    20.0800        44
    20.1000        50
    20.1200        62
    20.1400        56
    20.1600        56
    20.1800        56
    20.2000        34
    20.2200        56
    20.2400        46
    20.2600        52
    20.2800        60
    20.3000        46
    20.3200        42
    20.3400        40
    20.3600        54
