/////////////////////////////////////////////////////////////////////////////////
/// Profile Data Ascii Dump (XRD)                                             ///
/////////////////////////////////////////////////////////////////////////////////

  Group     : Swayze
  Data      : WS738
  File Name : WS738.RAW

# Profile Datafile
          comment             = Clinoptilolite 
          date & time         = 08-03-13 05:50:54 

# Measurement Condition
    X-ray tube
          target              = Cu 
          voltage             = 40.0 (kV)
          current             = 30.0 (mA)
    Slits
          divergence slit     = 2.00000 (deg) 
          scatter slit        = 2.00000 (deg) 
          receiving slit      = 0.15000 (mm)  
    Scanning
          drive axis          = Theta-2Theta 
          scan range          =    4.000 -   65.000 
          scan mode           = Continuous Scan 
          scan speed          =   2.0000 (deg/min) 
          sampling pitch      =   0.0200 (deg) 
          preset time         =   0.60 (sec) 

# Data      [ Total No. = 3051 ]
  <2Theta>   <   I   >
     4.0000       238
     4.0200       220
     4.0400       222
     4.0600       212
     4.0800       240
     4.1000       218
     4.1200       214
     4.1400       208
     4.1600       220
     4.1800       192
     4.2000       244
     4.2200       178
     4.2400       216
     4.2600       200
     4.2800       188
     4.3000       186
     4.3200       182
     4.3400       184
     4.3600       172
     4.3800       208
     4.4000       200
     4.4200       228
     4.4400       200
     4.4600       242
     4.4800       218
     4.5000       174
     4.5200       168
     4.5400       172
     4.5600       172
     4.5800       214
     4.6000       172
     4.6200       198
     4.6400       184
     4.6600       170
     4.6800       168
     4.7000       176
     4.7200       176
     4.7400       200
     4.7600       202
     4.7800       174
     4.8000       178
     4.8200       182
     4.8400       176
     4.8600       182
     4.8800       184
     4.9000       172
     4.9200       184
     4.9400       188
     4.9600       180
     4.9800       170
     5.0000       184
     5.0200       178
     5.0400       178
     5.0600       182
     5.0800       186
     5.1000       218
     5.1200       198
     5.1400       164
     5.1600       216
     5.1800       182
     5.2000       208
     5.2200       164
     5.2400       176
     5.2600       186
     5.2800       158
     5.3000       188
     5.3200       178
     5.3400       162
     5.3600       194
     5.3800       178
     5.4000       166
     5.4200       186
     5.4400       184
     5.4600       188
     5.4800       150
     5.5000       166
     5.5200       172
     5.5400       172
     5.5600       192
     5.5800       190
     5.6000       178
     5.6200       154
     5.6400       172
     5.6600       164
     5.6800       200
     5.7000       180
     5.7200       168
     5.7400       170
     5.7600       188
     5.7800       188
     5.8000       202
     5.8200       186
     5.8400       176
     5.8600       190
     5.8800       188
     5.9000       140
     5.9200       198
     5.9400       188
     5.9600       160
     5.9800       180
     6.0000       180
     6.0200       176
     6.0400       150
     6.0600       168
     6.0800       172
     6.1000       148
     6.1200       180
     6.1400       164
     6.1600       176
     6.1800       180
     6.2000       164
     6.2200       172
     6.2400       166
     6.2600       162
     6.2800       160
     6.3000       170
     6.3200       150
     6.3400       158
     6.3600       150
     6.3800       142
     6.4000       164
     6.4200       130
     6.4400       172
     6.4600       138
     6.4800       154
     6.5000       162
     6.5200       164
     6.5400       142
     6.5600       144
     6.5800       154
     6.6000       152
     6.6200       158
     6.6400       150
     6.6600       144
     6.6800       168
     6.7000       126
     6.7200       140
     6.7400       140
     6.7600       142
     6.7800       156
     6.8000       130
     6.8200       150
     6.8400       124
     6.8600       130
     6.8800       146
     6.9000       140
     6.9200       152
     6.9400       166
     6.9600       140
     6.9800       136
     7.0000       144
     7.0200       146
     7.0400       158
     7.0600       144
     7.0800       144
     7.1000       156
     7.1200       126
     7.1400       154
     7.1600       136
     7.1800       136
     7.2000       128
     7.2200       126
     7.2400       150
     7.2600       132
     7.2800       136
     7.3000       138
     7.3200       132
     7.3400       150
     7.3600       160
     7.3800       132
     7.4000       158
     7.4200       136
     7.4400       156
     7.4600       130
     7.4800       130
     7.5000       136
     7.5200       142
     7.5400       150
     7.5600       126
     7.5800       114
     7.6000       130
     7.6200       134
     7.6400       120
     7.6600       122
     7.6800       110
     7.7000       120
     7.7200       162
     7.7400       136
     7.7600       118
     7.7800       122
     7.8000       140
     7.8200       120
     7.8400       140
     7.8600       126
     7.8800       132
     7.9000       132
     7.9200       124
     7.9400       120
     7.9600       124
     7.9800       122
     8.0000       128
     8.0200       116
     8.0400       136
     8.0600       146
     8.0800       148
     8.1000       132
     8.1200       132
     8.1400       122
     8.1600       142
     8.1800       114
     8.2000       132
     8.2200       158
     8.2400       140
     8.2600       102
     8.2800       146
     8.3000       112
     8.3200       148
     8.3400       124
     8.3600       120
     8.3800       144
     8.4000       124
     8.4200       122
     8.4400       144
     8.4600       132
     8.4800       142
     8.5000       142
     8.5200       142
     8.5400       138
     8.5600       138
     8.5800       136
     8.6000       116
     8.6200       140
     8.6400       142
     8.6600       176
     8.6800       124
     8.7000       144
     8.7200       144
     8.7400       146
     8.7600       158
     8.7800       148
     8.8000       142
     8.8200       134
     8.8400       154
     8.8600       104
     8.8800       112
     8.9000       122
     8.9200       148
     8.9400       124
     8.9600       152
     8.9800       140
     9.0000       144
     9.0200       148
     9.0400       122
     9.0600       150
     9.0800       146
     9.1000       124
     9.1200       150
     9.1400       156
     9.1600       140
     9.1800       152
     9.2000       156
     9.2200       144
     9.2400       152
     9.2600       148
     9.2800       154
     9.3000       154
     9.3200       174
     9.3400       130
     9.3600       176
     9.3800       172
     9.4000       188
     9.4200       200
     9.4400       198
     9.4600       212
     9.4800       238
     9.5000       240
     9.5200       246
     9.5400       256
     9.5600       274
     9.5800       298
     9.6000       290
     9.6200       326
     9.6400       334
     9.6600       384
     9.6800       398
     9.7000       430
     9.7200       492
     9.7400       536
     9.7600       606
     9.7800       642
     9.8000       718
     9.8200       684
     9.8400       690
     9.8600       542
     9.8800       442
     9.9000       346
     9.9200       288
     9.9400       232
     9.9600       180
     9.9800       176
    10.0000       146
    10.0200       136
    10.0400       132
    10.0600       140
    10.0800       132
    10.1000       128
    10.1200       152
    10.1400       128
    10.1600       126
    10.1800       108
    10.2000       126
    10.2200       114
    10.2400       122
    10.2600       108
    10.2800       106
    10.3000       114
    10.3200       102
    10.3400       124
    10.3600       118
    10.3800        98
    10.4000       108
    10.4200       118
    10.4400       104
    10.4600       126
    10.4800       126
    10.5000       116
    10.5200       114
    10.5400       134
    10.5600       118
    10.5800       124
    10.6000       108
    10.6200       112
    10.6400       142
    10.6600       144
    10.6800       142
    10.7000       154
    10.7200       144
    10.7400       144
    10.7600       156
    10.7800       152
    10.8000       148
    10.8200       164
    10.8400       180
    10.8600       158
    10.8800       184
    10.9000       208
    10.9200       192
    10.9400       208
    10.9600       238
    10.9800       246
    11.0000       282
    11.0200       346
    11.0400       380
    11.0600       422
    11.0800       452
    11.1000       454
    11.1200       452
    11.1400       394
    11.1600       310
    11.1800       264
    11.2000       184
    11.2200       160
    11.2400       124
    11.2600       128
    11.2800       138
    11.3000       110
    11.3200       124
    11.3400       102
    11.3600        98
    11.3800       102
    11.4000       110
    11.4200        92
    11.4400       126
    11.4600        94
    11.4800       106
    11.5000        90
    11.5200       110
    11.5400        86
    11.5600       104
    11.5800       104
    11.6000        96
    11.6200       102
    11.6400       110
    11.6600       108
    11.6800        98
    11.7000       100
    11.7200       100
    11.7400        92
    11.7600        78
    11.7800        88
    11.8000       106
    11.8200        80
    11.8400        92
    11.8600        68
    11.8800        94
    11.9000        64
    11.9200        94
    11.9400        90
    11.9600        84
    11.9800        90
    12.0000        76
    12.0200        90
    12.0400        74
    12.0600        98
    12.0800        96
    12.1000       106
    12.1200       106
    12.1400        98
    12.1600        98
    12.1800       102
    12.2000        92
    12.2200       102
    12.2400       116
    12.2600        88
    12.2800        88
    12.3000        78
    12.3200        76
    12.3400        80
    12.3600        86
    12.3800        96
    12.4000        86
    12.4200        92
    12.4400       106
    12.4600        94
    12.4800        86
    12.5000        86
    12.5200        76
    12.5400        94
    12.5600       102
    12.5800        98
    12.6000        92
    12.6200        94
    12.6400       120
    12.6600       110
    12.6800       104
    12.7000       112
    12.7200       116
    12.7400       122
    12.7600       108
    12.7800       112
    12.8000       132
    12.8200       138
    12.8400       146
    12.8600       162
    12.8800       184
    12.9000       164
    12.9200       178
    12.9400       178
    12.9600       154
    12.9800       178
    13.0000       158
    13.0200       152
    13.0400       120
    13.0600       152
    13.0800       128
    13.1000       104
    13.1200       106
    13.1400       110
    13.1600       118
    13.1800       104
    13.2000       146
    13.2200       110
    13.2400       112
    13.2600       108
    13.2800       112
    13.3000       116
    13.3200       112
    13.3400        80
    13.3600        72
    13.3800        84
    13.4000        92
    13.4200        74
    13.4400        82
    13.4600        72
    13.4800        76
    13.5000        84
    13.5200        74
    13.5400        86
    13.5600        78
    13.5800        70
    13.6000        76
    13.6200        88
    13.6400        94
    13.6600        76
    13.6800        78
    13.7000        66
    13.7200        74
    13.7400        80
    13.7600        78
    13.7800        78
    13.8000        88
    13.8200        94
    13.8400        84
    13.8600        82
    13.8800        78
    13.9000        66
    13.9200        78
    13.9400        72
    13.9600        74
    13.9800        76
    14.0000        82
    14.0200        74
    14.0400        86
    14.0600        88
    14.0800        66
    14.1000        62
    14.1200        86
    14.1400        56
    14.1600        72
    14.1800        86
    14.2000        72
    14.2200        76
    14.2400        72
    14.2600        76
    14.2800        74
    14.3000        68
    14.3200        88
    14.3400        72
    14.3600        84
    14.3800        66
    14.4000        78
    14.4200        72
    14.4400        74
    14.4600        76
    14.4800        70
    14.5000        80
    14.5200        80
    14.5400        72
    14.5600        82
    14.5800        94
    14.6000        78
    14.6200        76
    14.6400       100
    14.6600        88
    14.6800       102
    14.7000       100
    14.7200       108
    14.7400        82
    14.7600       100
    14.7800       116
    14.8000       124
    14.8200       136
    14.8400       144
    14.8600       140
    14.8800       162
    14.9000       144
    14.9200       130
    14.9400       132
    14.9600        92
    14.9800        96
    15.0000        88
    15.0200        80
    15.0400        68
    15.0600        78
    15.0800        68
    15.1000        84
    15.1200        72
    15.1400        82
    15.1600        66
    15.1800        60
    15.2000        72
    15.2200        72
    15.2400        72
    15.2600        74
    15.2800        84
    15.3000        74
    15.3200        62
    15.3400        76
    15.3600        88
    15.3800        72
    15.4000        88
    15.4200        72
    15.4400        88
    15.4600        80
    15.4800        54
    15.5000        62
    15.5200        74
    15.5400        84
    15.5600        64
    15.5800        64
    15.6000        74
    15.6200        82
    15.6400        66
    15.6600        94
    15.6800        70
    15.7000        76
    15.7200        70
    15.7400        72
    15.7600        88
    15.7800        82
    15.8000       100
    15.8200        72
    15.8400       112
    15.8600        78
    15.8800        86
    15.9000        68
    15.9200        76
    15.9400        78
    15.9600        74
    15.9800        76
    16.0000        70
    16.0200        78
    16.0400        58
    16.0600        84
    16.0800        70
    16.1000        74
    16.1200        54
    16.1400        56
    16.1600        74
    16.1800        80
    16.2000        70
    16.2200        78
    16.2400        66
    16.2600        72
    16.2800        78
    16.3000        74
    16.3200        76
    16.3400        66
    16.3600        82
    16.3800        70
    16.4000        92
    16.4200        78
    16.4400        84
    16.4600        80
    16.4800        86
    16.5000        82
    16.5200        72
    16.5400        92
    16.5600        88
    16.5800       108
    16.6000        84
    16.6200       110
    16.6400        92
    16.6600       104
    16.6800        98
    16.7000       112
    16.7200       118
    16.7400       150
    16.7600       120
    16.7800       150
    16.8000       160
    16.8200       172
    16.8400       190
    16.8600       160
    16.8800       180
    16.9000       134
    16.9200       116
    16.9400       130
    16.9600       126
    16.9800       142
    17.0000       140
    17.0200       140
    17.0400       134
    17.0600       162
    17.0800       138
    17.1000       164
    17.1200       164
    17.1400       216
    17.1600       258
    17.1800       252
    17.2000       328
    17.2200       316
    17.2400       384
    17.2600       372
    17.2800       356
    17.3000       250
    17.3200       266
    17.3400       190
    17.3600       186
    17.3800       138
    17.4000       128
    17.4200       118
    17.4400       118
    17.4600       124
    17.4800       130
    17.5000       128
    17.5200        98
    17.5400        96
    17.5600       106
    17.5800        68
    17.6000        94
    17.6200        82
    17.6400        80
    17.6600        74
    17.6800        84
    17.7000        84
    17.7200        58
    17.7400        68
    17.7600        62
    17.7800        80
    17.8000        66
    17.8200        66
    17.8400        78
    17.8600        70
    17.8800        84
    17.9000        68
    17.9200        66
    17.9400        88
    17.9600        68
    17.9800        56
    18.0000        70
    18.0200        68
    18.0400        78
    18.0600        68
    18.0800        90
    18.1000        72
    18.1200        88
    18.1400        74
    18.1600        80
    18.1800        76
    18.2000        70
    18.2200        48
    18.2400        64
    18.2600        60
    18.2800        78
    18.3000        82
    18.3200        70
    18.3400        78
    18.3600        68
    18.3800        72
    18.4000        78
    18.4200        66
    18.4400        86
    18.4600        66
    18.4800        58
    18.5000        76
    18.5200        82
    18.5400        76
    18.5600        70
    18.5800        76
    18.6000        84
    18.6200        66
    18.6400        68
    18.6600       106
    18.6800        82
    18.7000        92
    18.7200        88
    18.7400        76
    18.7600       126
    18.7800        96
    18.8000       100
    18.8200       122
    18.8400       102
    18.8600       138
    18.8800       130
    18.9000       162
    18.9200       168
    18.9400       184
    18.9600       222
    18.9800       204
    19.0000       248
    19.0200       232
    19.0400       238
    19.0600       192
    19.0800       182
    19.1000       176
    19.1200       172
    19.1400       142
    19.1600       100
    19.1800        86
    19.2000       108
    19.2200        98
    19.2400       102
    19.2600        76
    19.2800        94
    19.3000       104
    19.3200        76
    19.3400        78
    19.3600        94
    19.3800       106
    19.4000        84
    19.4200       104
    19.4400        90
    19.4600        90
    19.4800        90
    19.5000        92
    19.5200        80
    19.5400        98
    19.5600        88
    19.5800       110
    19.6000        98
    19.6200        96
    19.6400       110
    19.6600        82
    19.6800       122
    19.7000        98
    19.7200       102
    19.7400        94
    19.7600        94
    19.7800        94
    19.8000       118
    19.8200        90
    19.8400        98
    19.8600       102
    19.8800        98
    19.9000        98
    19.9200        90
    19.9400        94
    19.9600       102
    19.9800        88
    20.0000       106
    20.0200       114
    20.0400       116
    20.0600       102
    20.0800        96
    20.1000       110
    20.1200       116
    20.1400       104
    20.1600       116
    20.1800       116
    20.2000       164
    20.2200       120
    20.2400       154
    20.2600       158
    20.2800       184
    20.3000       190
    20.3200       192
    20.3400       162
    20.3600       184
    20.3800       178
