/////////////////////////////////////////////////////////////////////////////////
/// Profile Data Ascii Dump (XRD)                                             ///
/////////////////////////////////////////////////////////////////////////////////

  Group     : Swayze
  Data      : WS741
  File Name : WS741.RAW

# Profile Datafile
          comment             = Heulandite 
          date & time         = 08-03-13 07:23:46 

# Measurement Condition
    X-ray tube
          target              = Cu 
          voltage             = 40.0 (kV)
          current             = 30.0 (mA)
    Slits
          divergence slit     = 2.00000 (deg) 
          scatter slit        = 2.00000 (deg) 
          receiving slit      = 0.15000 (mm)  
    Scanning
          drive axis          = Theta-2Theta 
          scan range          =    4.000 -   65.000 
          scan mode           = Continuous Scan 
          scan speed          =   2.0000 (deg/min) 
          sampling pitch      =   0.0200 (deg) 
          preset time         =   0.60 (sec) 

# Data      [ Total No. = 3051 ]
  <2Theta>   <   I   >
     4.0000       196
     4.0200       198
     4.0400       182
     4.0600       184
     4.0800       164
     4.1000       188
     4.1200       198
     4.1400       182
     4.1600       168
     4.1800       180
     4.2000       168
     4.2200       198
     4.2400       144
     4.2600       160
     4.2800       178
     4.3000       160
     4.3200       162
     4.3400       190
     4.3600       162
     4.3800       184
     4.4000       132
     4.4200       150
     4.4400       164
     4.4600       150
     4.4800       168
     4.5000       156
     4.5200       160
     4.5400       206
     4.5600       166
     4.5800       144
     4.6000       146
     4.6200       180
     4.6400       164
     4.6600       160
     4.6800       156
     4.7000       140
     4.7200       162
     4.7400       168
     4.7600       184
     4.7800       174
     4.8000       154
     4.8200       148
     4.8400       190
     4.8600       170
     4.8800       150
     4.9000       146
     4.9200       134
     4.9400       158
     4.9600       166
     4.9800       156
     5.0000       136
     5.0200       146
     5.0400       160
     5.0600       158
     5.0800       150
     5.1000       160
     5.1200       156
     5.1400       154
     5.1600       170
     5.1800       180
     5.2000       182
     5.2200       152
     5.2400       164
     5.2600       170
     5.2800       176
     5.3000       154
     5.3200       168
     5.3400       158
     5.3600       162
     5.3800       182
     5.4000       164
     5.4200       192
     5.4400       170
     5.4600       158
     5.4800       158
     5.5000       170
     5.5200       160
     5.5400       154
     5.5600       164
     5.5800       170
     5.6000       176
     5.6200       156
     5.6400       144
     5.6600       134
     5.6800       160
     5.7000       148
     5.7200       166
     5.7400       176
     5.7600       174
     5.7800       158
     5.8000       146
     5.8200       166
     5.8400       148
     5.8600       166
     5.8800       154
     5.9000       162
     5.9200       134
     5.9400       158
     5.9600       160
     5.9800       168
     6.0000       154
     6.0200       128
     6.0400       146
     6.0600       164
     6.0800       120
     6.1000       188
     6.1200       140
     6.1400       166
     6.1600       172
     6.1800       152
     6.2000       122
     6.2200       142
     6.2400       128
     6.2600       154
     6.2800       190
     6.3000       122
     6.3200       148
     6.3400       168
     6.3600       162
     6.3800       146
     6.4000       156
     6.4200       146
     6.4400       150
     6.4600       130
     6.4800       134
     6.5000       130
     6.5200       116
     6.5400       136
     6.5600       124
     6.5800       148
     6.6000       110
     6.6200       140
     6.6400       136
     6.6600       136
     6.6800       170
     6.7000       120
     6.7200       126
     6.7400       120
     6.7600       134
     6.7800       148
     6.8000       136
     6.8200       122
     6.8400       132
     6.8600       126
     6.8800       140
     6.9000       136
     6.9200       104
     6.9400       132
     6.9600       128
     6.9800       126
     7.0000       100
     7.0200       106
     7.0400       130
     7.0600       114
     7.0800       130
     7.1000       128
     7.1200       110
     7.1400       134
     7.1600       102
     7.1800       118
     7.2000        98
     7.2200       136
     7.2400       122
     7.2600       124
     7.2800       126
     7.3000       114
     7.3200       106
     7.3400       120
     7.3600       114
     7.3800       130
     7.4000       152
     7.4200       110
     7.4400       118
     7.4600       112
     7.4800       108
     7.5000       130
     7.5200       114
     7.5400       120
     7.5600       134
     7.5800       112
     7.6000       120
     7.6200       134
     7.6400       116
     7.6600       120
     7.6800       124
     7.7000       122
     7.7200       106
     7.7400       126
     7.7600       112
     7.7800       118
     7.8000       122
     7.8200       110
     7.8400       102
     7.8600       112
     7.8800       112
     7.9000       120
     7.9200       104
     7.9400       116
     7.9600       118
     7.9800       114
     8.0000       140
     8.0200       104
     8.0400       108
     8.0600       112
     8.0800        86
     8.1000       116
     8.1200       108
     8.1400       112
     8.1600        98
     8.1800       116
     8.2000       110
     8.2200       126
     8.2400       108
     8.2600       108
     8.2800        82
     8.3000       120
     8.3200       116
     8.3400       112
     8.3600       116
     8.3800       118
     8.4000       126
     8.4200       130
     8.4400       112
     8.4600       122
     8.4800       120
     8.5000       114
     8.5200       124
     8.5400       126
     8.5600       126
     8.5800       136
     8.6000       144
     8.6200       126
     8.6400       152
     8.6600       148
     8.6800       154
     8.7000       128
     8.7200       136
     8.7400       126
     8.7600       136
     8.7800       118
     8.8000       150
     8.8200       134
     8.8400       132
     8.8600       144
     8.8800       138
     8.9000       126
     8.9200       120
     8.9400       114
     8.9600       158
     8.9800       146
     9.0000       134
     9.0200       150
     9.0400       128
     9.0600       140
     9.0800       122
     9.1000       142
     9.1200       142
     9.1400       146
     9.1600       148
     9.1800       138
     9.2000       176
     9.2200       168
     9.2400       176
     9.2600       214
     9.2800       186
     9.3000       176
     9.3200       222
     9.3400       238
     9.3600       272
     9.3800       266
     9.4000       266
     9.4200       346
     9.4400       406
     9.4600       460
     9.4800       512
     9.5000       532
     9.5200       586
     9.5400       716
     9.5600       680
     9.5800       882
     9.6000       986
     9.6200      1210
     9.6400      1336
     9.6600      1530
     9.6800      1850
     9.7000      2450
     9.7200      3394
     9.7400      5472
     9.7600      8158
     9.7800     10198
     9.8000     10834
     9.8200      9818
     9.8400      7582
     9.8600      4922
     9.8800      2894
     9.9000      1598
     9.9200       832
     9.9400       478
     9.9600       354
     9.9800       324
    10.0000       304
    10.0200       288
    10.0400       248
    10.0600       276
    10.0800       222
    10.1000       196
    10.1200       162
    10.1400       168
    10.1600       152
    10.1800       108
    10.2000       118
    10.2200       118
    10.2400       110
    10.2600       108
    10.2800       118
    10.3000       108
    10.3200        94
    10.3400       108
    10.3600       104
    10.3800        94
    10.4000       100
    10.4200       120
    10.4400        94
    10.4600        96
    10.4800       124
    10.5000        98
    10.5200       118
    10.5400       108
    10.5600        92
    10.5800       106
    10.6000       114
    10.6200        96
    10.6400       104
    10.6600        92
    10.6800       112
    10.7000       114
    10.7200        94
    10.7400       106
    10.7600       116
    10.7800        90
    10.8000       116
    10.8200        88
    10.8400       120
    10.8600       100
    10.8800       100
    10.9000       120
    10.9200       114
    10.9400       112
    10.9600       128
    10.9800       128
    11.0000       146
    11.0200       154
    11.0400       150
    11.0600       152
    11.0800       126
    11.1000       118
    11.1200       130
    11.1400       120
    11.1600        96
    11.1800       108
    11.2000       108
    11.2200        82
    11.2400        88
    11.2600        98
    11.2800        98
    11.3000        94
    11.3200        98
    11.3400        84
    11.3600        92
    11.3800        92
    11.4000       104
    11.4200        76
    11.4400        98
    11.4600        84
    11.4800       100
    11.5000        80
    11.5200        90
    11.5400        86
    11.5600        92
    11.5800        76
    11.6000        94
    11.6200        90
    11.6400        88
    11.6600        96
    11.6800        70
    11.7000        90
    11.7200        76
    11.7400        90
    11.7600        90
    11.7800        70
    11.8000        68
    11.8200        76
    11.8400        76
    11.8600        86
    11.8800       102
    11.9000        92
    11.9200        84
    11.9400        80
    11.9600        78
    11.9800       106
    12.0000        86
    12.0200        82
    12.0400        74
    12.0600        96
    12.0800        80
    12.1000        74
    12.1200        84
    12.1400        88
    12.1600        84
    12.1800        80
    12.2000        76
    12.2200        74
    12.2400        78
    12.2600        66
    12.2800        66
    12.3000        80
    12.3200        88
    12.3400        72
    12.3600        86
    12.3800        90
    12.4000        78
    12.4200        82
    12.4400        84
    12.4600        68
    12.4800        94
    12.5000        76
    12.5200        74
    12.5400        84
    12.5600        82
    12.5800        88
    12.6000        84
    12.6200        98
    12.6400       144
    12.6600       164
    12.6800       192
    12.7000       166
    12.7200       128
    12.7400       120
    12.7600        94
    12.7800       110
    12.8000       100
    12.8200       112
    12.8400        96
    12.8600       118
    12.8800       138
    12.9000       150
    12.9200       142
    12.9400       124
    12.9600        94
    12.9800        90
    13.0000        90
    13.0200        88
    13.0400        76
    13.0600        80
    13.0800        90
    13.1000       102
    13.1200        88
    13.1400        98
    13.1600        96
    13.1800       112
    13.2000        98
    13.2200       108
    13.2400       112
    13.2600        80
    13.2800        86
    13.3000        64
    13.3200        66
    13.3400        86
    13.3600        88
    13.3800        78
    13.4000        58
    13.4200        56
    13.4400        80
    13.4600        62
    13.4800        70
    13.5000        90
    13.5200        70
    13.5400        72
    13.5600        60
    13.5800        74
    13.6000        68
    13.6200        72
    13.6400        70
    13.6600        68
    13.6800        72
    13.7000        64
    13.7200        78
    13.7400        70
    13.7600        60
    13.7800        64
    13.8000        72
    13.8200        70
    13.8400        80
    13.8600        76
    13.8800        76
    13.9000        88
    13.9200        70
    13.9400        80
    13.9600        60
    13.9800        60
    14.0000        66
    14.0200        58
    14.0400        70
    14.0600        68
    14.0800        72
    14.1000        62
    14.1200        70
    14.1400        70
    14.1600        74
    14.1800        62
    14.2000        66
    14.2200        68
    14.2400        88
    14.2600        68
    14.2800        56
    14.3000        56
    14.3200        78
    14.3400        66
    14.3600        78
    14.3800        64
    14.4000        62
    14.4200        58
    14.4400        56
    14.4600        74
    14.4800        66
    14.5000        70
    14.5200        72
    14.5400        84
    14.5600        54
    14.5800        70
    14.6000        66
    14.6200        62
    14.6400        82
    14.6600        60
    14.6800        84
    14.7000        88
    14.7200        80
    14.7400        84
    14.7600        82
    14.7800        80
    14.8000        78
    14.8200        84
    14.8400        72
    14.8600        74
    14.8800        84
    14.9000        62
    14.9200        66
    14.9400        62
    14.9600        64
    14.9800        68
    15.0000        66
    15.0200        66
    15.0400        60
    15.0600        78
    15.0800        64
    15.1000        70
    15.1200        58
    15.1400        70
    15.1600        60
    15.1800        74
    15.2000        64
    15.2200        64
    15.2400        66
    15.2600        66
    15.2800        46
    15.3000        60
    15.3200        86
    15.3400        60
    15.3600        54
    15.3800        62
    15.4000        62
    15.4200        78
    15.4400        68
    15.4600        78
    15.4800        66
    15.5000        74
    15.5200        72
    15.5400        62
    15.5600        72
    15.5800        76
    15.6000        84
    15.6200        80
    15.6400        96
    15.6600        92
    15.6800        98
    15.7000       114
    15.7200       102
    15.7400       116
    15.7600       136
    15.7800       130
    15.8000       116
    15.8200        92
    15.8400        92
    15.8600        84
    15.8800        56
    15.9000        60
    15.9200        72
    15.9400        78
    15.9600        58
    15.9800        70
    16.0000        56
    16.0200        56
    16.0400        70
    16.0600        70
    16.0800        70
    16.1000        64
    16.1200        58
    16.1400        64
    16.1600        64
    16.1800        68
    16.2000        70
    16.2200        86
    16.2400        76
    16.2600        78
    16.2800        72
    16.3000        80
    16.3200        70
    16.3400        78
    16.3600        62
    16.3800        78
    16.4000        98
    16.4200        90
    16.4400       102
    16.4600       100
    16.4800       110
    16.5000       138
    16.5200        98
    16.5400        90
    16.5600       100
    16.5800       108
    16.6000       120
    16.6200       110
    16.6400       134
    16.6600       120
    16.6800       110
    16.7000        86
    16.7200       120
    16.7400       132
    16.7600       110
    16.7800       120
    16.8000       124
    16.8200       110
    16.8400       118
    16.8600        94
    16.8800        94
    16.9000        80
    16.9200        62
    16.9400        82
    16.9600        70
    16.9800        88
    17.0000        76
    17.0200       100
    17.0400        96
    17.0600        86
    17.0800        82
    17.1000        92
    17.1200       118
    17.1400       134
    17.1600       152
    17.1800       126
    17.2000       126
    17.2200       162
    17.2400       140
    17.2600       134
    17.2800       122
    17.3000       126
    17.3200       126
    17.3400       126
    17.3600       120
    17.3800       116
    17.4000       104
    17.4200        96
    17.4400        92
    17.4600        80
    17.4800        86
    17.5000        80
    17.5200        60
    17.5400        72
    17.5600        54
    17.5800        44
    17.6000        60
    17.6200        56
    17.6400        58
    17.6600        70
    17.6800        68
    17.7000        58
    17.7200        66
    17.7400        56
    17.7600        66
    17.7800        60
    17.8000        60
    17.8200        74
    17.8400        60
    17.8600        58
    17.8800        58
    17.9000        62
    17.9200        54
    17.9400        62
    17.9600        68
    17.9800        62
    18.0000        60
    18.0200        46
    18.0400        54
    18.0600        58
    18.0800        74
    18.1000        62
    18.1200        46
    18.1400        78
    18.1600        64
    18.1800        56
    18.2000        54
    18.2200        62
    18.2400        50
    18.2600        54
    18.2800        64
    18.3000        66
    18.3200        80
    18.3400        60
    18.3600        66
    18.3800        56
    18.4000        60
    18.4200        72
    18.4400        58
    18.4600        58
    18.4800        74
    18.5000        46
    18.5200        56
    18.5400        64
    18.5600        68
    18.5800        86
    18.6000        60
    18.6200        70
    18.6400        76
    18.6600        96
    18.6800        82
    18.7000        84
    18.7200        98
    18.7400        86
    18.7600       134
    18.7800       124
    18.8000       150
    18.8200       154
    18.8400       240
    18.8600       232
    18.8800       270
    18.9000       296
    18.9200       306
    18.9400       338
    18.9600       330
    18.9800       292
    19.0000       292
    19.0200       212
    19.0400       170
    19.0600       128
    19.0800        78
    19.1000        84
    19.1200        68
    19.1400        56
    19.1600        58
    19.1800        56
    19.2000        74
    19.2200        70
    19.2400        60
    19.2600        62
    19.2800        68
    19.3000        52
    19.3200        64
    19.3400        70
    19.3600        62
    19.3800        50
    19.4000        54
    19.4200        68
    19.4400        54
    19.4600        64
    19.4800        64
    19.5000        58
    19.5200        64
    19.5400        64
    19.5600        74
    19.5800        80
    19.6000        88
    19.6200        96
    19.6400       100
    19.6600       116
    19.6800       148
    19.7000       190
    19.7200       214
    19.7400       236
    19.7600       202
    19.7800       206
    19.8000       174
    19.8200       158
    19.8400       140
    19.8600       118
    19.8800        78
    19.9000        76
    19.9200        84
    19.9400        64
    19.9600        66
    19.9800        64
    20.0000        70
    20.0200        66
    20.0400        58
    20.0600        72
    20.0800        66
    20.1000        72
    20.1200        88
    20.1400       114
    20.1600       106
    20.1800        92
    20.2000       108
    20.2200        88
    20.2400       102
    20.2600        96
    20.2800        84
    20.3000        66
    20.3200        64
    20.3400        60
    20.3600        52
    20.3800        58
