/////////////////////////////////////////////////////////////////////////////////
/// Profile Data Ascii Dump (XRD)                                             ///
/////////////////////////////////////////////////////////////////////////////////

  Group     : Swayze
  Data      : WS749
  File Name : WS749.RAW

# Profile Datafile
          comment             = Stilbite 
          date & time         = 08-03-14 05:53:58 

# Measurement Condition
    X-ray tube
          target              = Cu 
          voltage             = 40.0 (kV)
          current             = 30.0 (mA)
    Slits
          divergence slit     = 2.00000 (deg) 
          scatter slit        = 2.00000 (deg) 
          receiving slit      = 0.15000 (mm)  
    Scanning
          drive axis          = Theta-2Theta 
          scan range          =    4.000 -   65.000 
          scan mode           = Continuous Scan 
          scan speed          =   2.0000 (deg/min) 
          sampling pitch      =   0.0200 (deg) 
          preset time         =   0.60 (sec) 

# Data      [ Total No. = 3051 ]
  <2Theta>   <   I   >
     4.0000       192
     4.0200       192
     4.0400       208
     4.0600       194
     4.0800       186
     4.1000       232
     4.1200       210
     4.1400       186
     4.1600       180
     4.1800       192
     4.2000       170
     4.2200       186
     4.2400       188
     4.2600       178
     4.2800       176
     4.3000       176
     4.3200       174
     4.3400       180
     4.3600       160
     4.3800       188
     4.4000       154
     4.4200       186
     4.4400       194
     4.4600       190
     4.4800       172
     4.5000       176
     4.5200       186
     4.5400       166
     4.5600       174
     4.5800       204
     4.6000       174
     4.6200       170
     4.6400       154
     4.6600       156
     4.6800       190
     4.7000       174
     4.7200       154
     4.7400       172
     4.7600       192
     4.7800       204
     4.8000       142
     4.8200       192
     4.8400       200
     4.8600       164
     4.8800       162
     4.9000       166
     4.9200       166
     4.9400       192
     4.9600       158
     4.9800       172
     5.0000       166
     5.0200       170
     5.0400       180
     5.0600       158
     5.0800       180
     5.1000       200
     5.1200       180
     5.1400       170
     5.1600       172
     5.1800       174
     5.2000       174
     5.2200       154
     5.2400       170
     5.2600       160
     5.2800       164
     5.3000       168
     5.3200       166
     5.3400       174
     5.3600       168
     5.3800       170
     5.4000       154
     5.4200       170
     5.4400       170
     5.4600       186
     5.4800       170
     5.5000       168
     5.5200       170
     5.5400       170
     5.5600       154
     5.5800       180
     5.6000       174
     5.6200       130
     5.6400       150
     5.6600       170
     5.6800       146
     5.7000       156
     5.7200       148
     5.7400       190
     5.7600       174
     5.7800       188
     5.8000       182
     5.8200       174
     5.8400       152
     5.8600       176
     5.8800       146
     5.9000       164
     5.9200       156
     5.9400       162
     5.9600       174
     5.9800       164
     6.0000       184
     6.0200       190
     6.0400       174
     6.0600       190
     6.0800       164
     6.1000       156
     6.1200       152
     6.1400       172
     6.1600       180
     6.1800       182
     6.2000       160
     6.2200       148
     6.2400       168
     6.2600       148
     6.2800       154
     6.3000       154
     6.3200       170
     6.3400       162
     6.3600       160
     6.3800       124
     6.4000       168
     6.4200       144
     6.4400       160
     6.4600       150
     6.4800       160
     6.5000       158
     6.5200       130
     6.5400       172
     6.5600       138
     6.5800       134
     6.6000       136
     6.6200       130
     6.6400       118
     6.6600       156
     6.6800       148
     6.7000       138
     6.7200       136
     6.7400       126
     6.7600       140
     6.7800       144
     6.8000       136
     6.8200       142
     6.8400       124
     6.8600       134
     6.8800       136
     6.9000       136
     6.9200       140
     6.9400       142
     6.9600       118
     6.9800       142
     7.0000       110
     7.0200       142
     7.0400       132
     7.0600       144
     7.0800       126
     7.1000       128
     7.1200       124
     7.1400       122
     7.1600       130
     7.1800       118
     7.2000       132
     7.2200       108
     7.2400       116
     7.2600       144
     7.2800       112
     7.3000       118
     7.3200       110
     7.3400       130
     7.3600       118
     7.3800       124
     7.4000       112
     7.4200       110
     7.4400       136
     7.4600       132
     7.4800       132
     7.5000        92
     7.5200       128
     7.5400       134
     7.5600       124
     7.5800       126
     7.6000       110
     7.6200       110
     7.6400       114
     7.6600       124
     7.6800       110
     7.7000       122
     7.7200       114
     7.7400       112
     7.7600       120
     7.7800       122
     7.8000       118
     7.8200       144
     7.8400       108
     7.8600        96
     7.8800       126
     7.9000       146
     7.9200       120
     7.9400       122
     7.9600       128
     7.9800       110
     8.0000       130
     8.0200       112
     8.0400       120
     8.0600       122
     8.0800       104
     8.1000       128
     8.1200       132
     8.1400       126
     8.1600       124
     8.1800       132
     8.2000       132
     8.2200       112
     8.2400       114
     8.2600       126
     8.2800       126
     8.3000       128
     8.3200       136
     8.3400       132
     8.3600       146
     8.3800       132
     8.4000       128
     8.4200       140
     8.4400       136
     8.4600       130
     8.4800       144
     8.5000       136
     8.5200       138
     8.5400       166
     8.5600       166
     8.5800       136
     8.6000       122
     8.6200       152
     8.6400       148
     8.6600       148
     8.6800       148
     8.7000       168
     8.7200       168
     8.7400       184
     8.7600       160
     8.7800       122
     8.8000       134
     8.8200       144
     8.8400       162
     8.8600       164
     8.8800       134
     8.9000       160
     8.9200       188
     8.9400       164
     8.9600       174
     8.9800       166
     9.0000       150
     9.0200       168
     9.0400       182
     9.0600       168
     9.0800       222
     9.1000       176
     9.1200       194
     9.1400       220
     9.1600       224
     9.1800       244
     9.2000       310
     9.2200       298
     9.2400       400
     9.2600       372
     9.2800       404
     9.3000       434
     9.3200       498
     9.3400       532
     9.3600       654
     9.3800       696
     9.4000       908
     9.4200      1078
     9.4400      1076
     9.4600      1094
     9.4800      1260
     9.5000      1396
     9.5200      1684
     9.5400      2006
     9.5600      2558
     9.5800      3270
     9.6000      4438
     9.6200      6652
     9.6400      9594
     9.6600     12332
     9.6800     12004
     9.7000      9398
     9.7200      5898
     9.7400      3460
     9.7600      1856
     9.7800      1092
     9.8000       752
     9.8200       628
     9.8400       694
     9.8600       712
     9.8800       678
     9.9000       590
     9.9200       628
     9.9400       630
     9.9600       586
     9.9800       412
    10.0000       300
    10.0200       212
    10.0400       176
    10.0600       154
    10.0800       148
    10.1000       132
    10.1200       128
    10.1400       138
    10.1600       134
    10.1800       112
    10.2000       110
    10.2200       130
    10.2400       116
    10.2600       122
    10.2800       102
    10.3000       100
    10.3200       110
    10.3400       108
    10.3600       122
    10.3800       130
    10.4000       118
    10.4200       116
    10.4400       118
    10.4600        88
    10.4800       114
    10.5000       120
    10.5200       128
    10.5400       106
    10.5600        88
    10.5800       118
    10.6000       106
    10.6200       108
    10.6400       120
    10.6600       118
    10.6800       124
    10.7000       114
    10.7200       104
    10.7400       130
    10.7600       104
    10.7800       102
    10.8000       110
    10.8200       104
    10.8400       102
    10.8600       116
    10.8800       108
    10.9000        92
    10.9200       112
    10.9400       112
    10.9600        96
    10.9800       104
    11.0000       100
    11.0200        82
    11.0400       114
    11.0600        86
    11.0800        74
    11.1000       114
    11.1200       110
    11.1400       104
    11.1600        92
    11.1800       100
    11.2000        90
    11.2200       108
    11.2400       102
    11.2600       110
    11.2800        90
    11.3000       100
    11.3200        94
    11.3400        98
    11.3600        96
    11.3800        88
    11.4000       100
    11.4200       104
    11.4400        88
    11.4600        72
    11.4800       106
    11.5000        94
    11.5200        98
    11.5400       100
    11.5600        94
    11.5800        82
    11.6000        82
    11.6200        80
    11.6400        78
    11.6600        80
    11.6800        88
    11.7000        86
    11.7200        88
    11.7400        82
    11.7600        92
    11.7800        84
    11.8000       100
    11.8200        94
    11.8400        82
    11.8600        84
    11.8800        68
    11.9000       114
    11.9200       104
    11.9400        80
    11.9600        80
    11.9800        82
    12.0000        98
    12.0200        96
    12.0400        90
    12.0600        62
    12.0800        82
    12.1000        88
    12.1200        84
    12.1400       102
    12.1600        88
    12.1800        78
    12.2000        88
    12.2200        78
    12.2400        80
    12.2600        70
    12.2800        98
    12.3000        90
    12.3200       102
    12.3400        62
    12.3600        98
    12.3800        86
    12.4000        96
    12.4200       102
    12.4400        86
    12.4600        70
    12.4800       116
    12.5000        92
    12.5200        82
    12.5400        96
    12.5600        76
    12.5800        70
    12.6000        84
    12.6200        82
    12.6400        74
    12.6600        86
    12.6800        92
    12.7000        76
    12.7200        78
    12.7400       100
    12.7600        68
    12.7800        76
    12.8000        80
    12.8200        72
    12.8400        86
    12.8600        88
    12.8800        96
    12.9000        82
    12.9200        76
    12.9400        66
    12.9600        94
    12.9800        84
    13.0000       100
    13.0200        88
    13.0400        66
    13.0600        88
    13.0800        90
    13.1000        80
    13.1200        54
    13.1400        88
    13.1600        88
    13.1800        84
    13.2000        74
    13.2200        74
    13.2400        78
    13.2600        82
    13.2800        80
    13.3000        76
    13.3200        78
    13.3400        84
    13.3600        74
    13.3800        60
    13.4000        78
    13.4200        76
    13.4400        68
    13.4600        76
    13.4800        98
    13.5000        86
    13.5200        90
    13.5400        72
    13.5600        80
    13.5800        82
    13.6000        88
    13.6200        80
    13.6400        80
    13.6600        84
    13.6800        90
    13.7000       118
    13.7200       114
    13.7400       136
    13.7600       156
    13.7800       124
    13.8000       106
    13.8200        92
    13.8400       112
    13.8600       108
    13.8800       112
    13.9000        84
    13.9200        98
    13.9400        84
    13.9600        92
    13.9800        88
    14.0000        74
    14.0200        84
    14.0400        74
    14.0600        82
    14.0800        88
    14.1000        88
    14.1200        66
    14.1400        58
    14.1600        76
    14.1800        74
    14.2000        66
    14.2200        72
    14.2400        84
    14.2600        80
    14.2800        78
    14.3000        54
    14.3200        68
    14.3400        70
    14.3600        82
    14.3800        68
    14.4000        66
    14.4200        68
    14.4400        90
    14.4600        72
    14.4800        68
    14.5000        90
    14.5200        76
    14.5400        66
    14.5600        68
    14.5800        66
    14.6000        82
    14.6200        84
    14.6400        68
    14.6600        80
    14.6800        80
    14.7000        60
    14.7200        66
    14.7400        70
    14.7600        46
    14.7800        84
    14.8000        62
    14.8200        72
    14.8400        60
    14.8600        64
    14.8800        72
    14.9000        70
    14.9200        60
    14.9400        72
    14.9600        78
    14.9800        82
    15.0000        74
    15.0200        60
    15.0400        84
    15.0600        62
    15.0800        50
    15.1000        58
    15.1200        68
    15.1400        52
    15.1600        52
    15.1800        68
    15.2000        66
    15.2200        74
    15.2400        72
    15.2600        60
    15.2800        72
    15.3000        64
    15.3200        68
    15.3400        64
    15.3600        66
    15.3800        68
    15.4000        54
    15.4200        72
    15.4400        66
    15.4600        62
    15.4800        64
    15.5000        64
    15.5200        68
    15.5400        70
    15.5600        60
    15.5800        68
    15.6000        76
    15.6200        66
    15.6400        46
    15.6600        76
    15.6800        62
    15.7000        80
    15.7200        56
    15.7400        58
    15.7600        66
    15.7800        76
    15.8000        76
    15.8200        64
    15.8400        68
    15.8600        66
    15.8800        68
    15.9000        72
    15.9200        66
    15.9400        78
    15.9600        78
    15.9800        64
    16.0000        76
    16.0200        66
    16.0400        84
    16.0600        62
    16.0800        74
    16.1000        76
    16.1200        64
    16.1400        80
    16.1600        74
    16.1800        84
    16.2000       108
    16.2200        92
    16.2400        72
    16.2600        84
    16.2800        90
    16.3000        64
    16.3200        68
    16.3400        76
    16.3600        76
    16.3800        84
    16.4000        80
    16.4200        86
    16.4400        84
    16.4600        74
    16.4800       104
    16.5000        94
    16.5200        96
    16.5400       106
    16.5600       156
    16.5800       166
    16.6000       204
    16.6200       192
    16.6400       210
    16.6600       176
    16.6800       168
    16.7000       156
    16.7200       108
    16.7400       120
    16.7600        76
    16.7800        90
    16.8000        82
    16.8200        76
    16.8400       100
    16.8600       122
    16.8800       120
    16.9000       110
    16.9200        98
    16.9400        86
    16.9600        86
    16.9800        72
    17.0000        66
    17.0200        48
    17.0400        80
    17.0600        48
    17.0800        88
    17.1000        60
    17.1200        54
    17.1400        68
    17.1600        68
    17.1800        66
    17.2000        62
    17.2200        76
    17.2400        76
    17.2600        60
    17.2800        58
    17.3000        70
    17.3200        64
    17.3400        72
    17.3600        74
    17.3800        52
    17.4000        58
    17.4200        42
    17.4400        72
    17.4600        78
    17.4800        68
    17.5000        54
    17.5200        66
    17.5400        56
    17.5600        76
    17.5800        72
    17.6000        46
    17.6200        64
    17.6400        54
    17.6600        64
    17.6800        62
    17.7000        64
    17.7200        66
    17.7400        80
    17.7600        64
    17.7800        68
    17.8000        44
    17.8200        80
    17.8400        70
    17.8600        68
    17.8800        58
    17.9000        70
    17.9200        62
    17.9400        56
    17.9600        52
    17.9800        68
    18.0000        72
    18.0200        42
    18.0400        66
    18.0600        72
    18.0800        64
    18.1000        68
    18.1200        60
    18.1400        76
    18.1600        52
    18.1800        62
    18.2000        62
    18.2200        64
    18.2400        70
    18.2600        58
    18.2800        54
    18.3000        68
    18.3200        48
    18.3400        72
    18.3600        62
    18.3800        58
    18.4000        66
    18.4200        56
    18.4400        60
    18.4600        80
    18.4800        82
    18.5000        62
    18.5200        76
    18.5400        74
    18.5600        80
    18.5800        48
    18.6000        84
    18.6200        90
    18.6400        74
    18.6600        60
    18.6800       100
    18.7000        92
    18.7200        64
    18.7400       104
    18.7600       114
    18.7800       128
    18.8000       134
    18.8200       128
    18.8400       172
    18.8600       162
    18.8800       194
    18.9000       242
    18.9200       194
    18.9400       238
    18.9600       232
    18.9800       186
    19.0000       200
    19.0200       204
    19.0400       208
    19.0600       218
    19.0800       214
    19.1000       206
    19.1200       204
    19.1400       218
    19.1600       226
    19.1800       212
    19.2000       194
    19.2200       192
    19.2400       182
    19.2600       208
    19.2800       212
    19.3000       276
    19.3200       438
    19.3400       600
    19.3600       642
    19.3800       756
    19.4000       746
    19.4200       596
    19.4400       502
    19.4600       382
    19.4800       276
    19.5000       208
    19.5200       142
    19.5400       106
    19.5600        96
    19.5800       100
    19.6000       110
    19.6200        94
    19.6400       108
    19.6600       114
    19.6800       102
    19.7000        84
    19.7200        96
    19.7400        88
    19.7600       106
    19.7800        90
    19.8000        96
    19.8200        64
    19.8400       100
    19.8600        92
    19.8800        90
    19.9000        98
    19.9200       132
    19.9400       186
    19.9600       236
    19.9800       210
    20.0000       180
    20.0200       156
    20.0400       102
    20.0600        70
    20.0800        82
    20.1000        60
    20.1200        66
    20.1400        78
    20.1600        60
    20.1800        68
    20.2000        62
    20.2200        74
    20.2400        54
    20.2600        54
    20.2800        64
    20.3000        66
    20.3200        66
    20.3400        70
    20.3600        72
    20.3800        90
