/////////////////////////////////////////////////////////////////////////////////
/// Profile Data Ascii Dump (XRD)                                             ///
/////////////////////////////////////////////////////////////////////////////////

  Group     : Swayze
  Data      : WS747
  File Name : WS747.RAW

# Profile Datafile
          comment             = Scolecite 
          date & time         = 08-03-13 07:54:41 

# Measurement Condition
    X-ray tube
          target              = Cu 
          voltage             = 40.0 (kV)
          current             = 30.0 (mA)
    Slits
          divergence slit     = 2.00000 (deg) 
          scatter slit        = 2.00000 (deg) 
          receiving slit      = 0.15000 (mm)  
    Scanning
          drive axis          = Theta-2Theta 
          scan range          =    4.000 -   65.000 
          scan mode           = Continuous Scan 
          scan speed          =   2.0000 (deg/min) 
          sampling pitch      =   0.0200 (deg) 
          preset time         =   0.60 (sec) 

# Data      [ Total No. = 3051 ]
  <2Theta>   <   I   >
     4.0000       206
     4.0200       168
     4.0400       172
     4.0600       184
     4.0800       184
     4.1000       176
     4.1200       174
     4.1400       148
     4.1600       174
     4.1800       158
     4.2000       178
     4.2200       192
     4.2400       154
     4.2600       176
     4.2800       182
     4.3000       162
     4.3200       160
     4.3400       188
     4.3600       164
     4.3800       182
     4.4000       184
     4.4200       150
     4.4400       178
     4.4600       176
     4.4800       176
     4.5000       158
     4.5200       160
     4.5400       184
     4.5600       182
     4.5800       150
     4.6000       186
     4.6200       136
     4.6400       156
     4.6600       130
     4.6800       144
     4.7000       156
     4.7200       160
     4.7400       170
     4.7600       152
     4.7800       162
     4.8000       140
     4.8200       168
     4.8400       180
     4.8600       168
     4.8800       172
     4.9000       154
     4.9200       174
     4.9400       178
     4.9600       172
     4.9800       152
     5.0000       146
     5.0200       146
     5.0400       182
     5.0600       158
     5.0800       152
     5.1000       156
     5.1200       152
     5.1400       164
     5.1600       146
     5.1800       132
     5.2000       164
     5.2200       146
     5.2400       158
     5.2600       148
     5.2800       140
     5.3000       166
     5.3200       146
     5.3400       160
     5.3600       160
     5.3800       144
     5.4000       154
     5.4200       170
     5.4400       136
     5.4600       174
     5.4800       158
     5.5000       166
     5.5200       164
     5.5400       142
     5.5600       154
     5.5800       176
     5.6000       152
     5.6200       120
     5.6400       138
     5.6600       162
     5.6800       144
     5.7000       182
     5.7200       140
     5.7400       170
     5.7600       152
     5.7800       122
     5.8000       146
     5.8200       156
     5.8400       152
     5.8600       134
     5.8800       158
     5.9000       170
     5.9200       168
     5.9400       170
     5.9600       152
     5.9800       156
     6.0000       168
     6.0200       146
     6.0400       152
     6.0600       140
     6.0800       132
     6.1000       152
     6.1200       146
     6.1400       160
     6.1600       142
     6.1800       144
     6.2000       160
     6.2200       164
     6.2400       142
     6.2600       160
     6.2800       118
     6.3000       124
     6.3200       134
     6.3400       124
     6.3600       172
     6.3800       136
     6.4000       140
     6.4200       148
     6.4400       136
     6.4600       142
     6.4800       108
     6.5000       160
     6.5200       140
     6.5400       142
     6.5600       140
     6.5800       128
     6.6000       136
     6.6200       144
     6.6400       130
     6.6600       126
     6.6800       124
     6.7000       130
     6.7200       124
     6.7400       154
     6.7600       110
     6.7800       104
     6.8000       108
     6.8200       128
     6.8400       114
     6.8600       120
     6.8800       110
     6.9000       130
     6.9200       114
     6.9400       118
     6.9600       100
     6.9800       112
     7.0000       124
     7.0200       128
     7.0400       108
     7.0600       100
     7.0800       114
     7.1000       116
     7.1200       118
     7.1400       118
     7.1600        94
     7.1800       148
     7.2000       130
     7.2200       108
     7.2400       126
     7.2600       122
     7.2800       126
     7.3000        90
     7.3200       122
     7.3400       102
     7.3600       104
     7.3800       116
     7.4000       108
     7.4200       108
     7.4400        84
     7.4600       110
     7.4800       128
     7.5000       118
     7.5200       100
     7.5400       106
     7.5600       116
     7.5800       108
     7.6000       108
     7.6200       106
     7.6400       118
     7.6600       108
     7.6800       126
     7.7000       126
     7.7200       114
     7.7400       124
     7.7600       116
     7.7800       102
     7.8000        94
     7.8200       102
     7.8400       114
     7.8600       124
     7.8800       112
     7.9000       110
     7.9200       122
     7.9400        96
     7.9600       106
     7.9800       106
     8.0000       104
     8.0200       124
     8.0400        98
     8.0600       120
     8.0800       100
     8.1000       112
     8.1200       112
     8.1400       112
     8.1600       118
     8.1800       124
     8.2000       122
     8.2200       114
     8.2400       126
     8.2600       136
     8.2800       122
     8.3000       110
     8.3200       122
     8.3400       128
     8.3600       106
     8.3800       102
     8.4000       124
     8.4200       134
     8.4400       126
     8.4600       120
     8.4800       122
     8.5000       110
     8.5200       140
     8.5400       112
     8.5600       118
     8.5800       128
     8.6000       118
     8.6200       106
     8.6400       136
     8.6600       152
     8.6800       136
     8.7000       154
     8.7200       132
     8.7400       116
     8.7600       132
     8.7800       134
     8.8000       120
     8.8200       116
     8.8400       136
     8.8600       132
     8.8800       120
     8.9000       116
     8.9200       112
     8.9400       126
     8.9600       164
     8.9800       142
     9.0000       186
     9.0200       190
     9.0400       198
     9.0600       190
     9.0800       184
     9.1000       224
     9.1200       216
     9.1400       222
     9.1600       232
     9.1800       198
     9.2000       244
     9.2200       286
     9.2400       290
     9.2600       354
     9.2800       406
     9.3000       516
     9.3200       560
     9.3400       636
     9.3600       752
     9.3800       780
     9.4000       862
     9.4200       840
     9.4400       870
     9.4600       994
     9.4800      1248
     9.5000      1682
     9.5200      2142
     9.5400      3408
     9.5600      4950
     9.5800      6702
     9.6000      7664
     9.6200      7674
     9.6400      6230
     9.6600      4548
     9.6800      2864
     9.7000      1770
     9.7200      1066
     9.7400       700
     9.7600       514
     9.7800       486
     9.8000       438
     9.8200       462
     9.8400       564
     9.8600       508
     9.8800       408
     9.9000       324
     9.9200       244
     9.9400       184
     9.9600       132
     9.9800       106
    10.0000       128
    10.0200       128
    10.0400       122
    10.0600       114
    10.0800       108
    10.1000       116
    10.1200       108
    10.1400       130
    10.1600       100
    10.1800       108
    10.2000       100
    10.2200       120
    10.2400        96
    10.2600       118
    10.2800        98
    10.3000        96
    10.3200        88
    10.3400       100
    10.3600       108
    10.3800        96
    10.4000       108
    10.4200       106
    10.4400       110
    10.4600        98
    10.4800       102
    10.5000       106
    10.5200        92
    10.5400        86
    10.5600       106
    10.5800        90
    10.6000        84
    10.6200        90
    10.6400       102
    10.6600        90
    10.6800       104
    10.7000        96
    10.7200        80
    10.7400        90
    10.7600        76
    10.7800        96
    10.8000        82
    10.8200        90
    10.8400        96
    10.8600        78
    10.8800        92
    10.9000        88
    10.9200        92
    10.9400        84
    10.9600       100
    10.9800        74
    11.0000       100
    11.0200        94
    11.0400        90
    11.0600        76
    11.0800        80
    11.1000        80
    11.1200        96
    11.1400        76
    11.1600        82
    11.1800        82
    11.2000        80
    11.2200        94
    11.2400        82
    11.2600        92
    11.2800        72
    11.3000        78
    11.3200        90
    11.3400        70
    11.3600       102
    11.3800        68
    11.4000        94
    11.4200       100
    11.4400        76
    11.4600        70
    11.4800        74
    11.5000        76
    11.5200        76
    11.5400        70
    11.5600        98
    11.5800        74
    11.6000        74
    11.6200        60
    11.6400        82
    11.6600        76
    11.6800        88
    11.7000        90
    11.7200        88
    11.7400        84
    11.7600        78
    11.7800        58
    11.8000        88
    11.8200        72
    11.8400        84
    11.8600        78
    11.8800        84
    11.9000        80
    11.9200        70
    11.9400        74
    11.9600        80
    11.9800        90
    12.0000        70
    12.0200        70
    12.0400        76
    12.0600        72
    12.0800        90
    12.1000        94
    12.1200        86
    12.1400        82
    12.1600        78
    12.1800        76
    12.2000        84
    12.2200        80
    12.2400        82
    12.2600        78
    12.2800        88
    12.3000        80
    12.3200        84
    12.3400        72
    12.3600        92
    12.3800        74
    12.4000        70
    12.4200        86
    12.4400        72
    12.4600        72
    12.4800        76
    12.5000        86
    12.5200        88
    12.5400        64
    12.5600        78
    12.5800        84
    12.6000        78
    12.6200        70
    12.6400        70
    12.6600        98
    12.6800        82
    12.7000        86
    12.7200        66
    12.7400        68
    12.7600        90
    12.7800        80
    12.8000        84
    12.8200        92
    12.8400        82
    12.8600        78
    12.8800        86
    12.9000        92
    12.9200        72
    12.9400        84
    12.9600        86
    12.9800        78
    13.0000        94
    13.0200       108
    13.0400        98
    13.0600        86
    13.0800        92
    13.1000       132
    13.1200       184
    13.1400       182
    13.1600       192
    13.1800       216
    13.2000       254
    13.2200       268
    13.2400       266
    13.2600       394
    13.2800       472
    13.3000       460
    13.3200       474
    13.3400       326
    13.3600       216
    13.3800       144
    13.4000       100
    13.4200       118
    13.4400        86
    13.4600        80
    13.4800        66
    13.5000        80
    13.5200        92
    13.5400        88
    13.5600        58
    13.5800        88
    13.6000        64
    13.6200       104
    13.6400        80
    13.6600        78
    13.6800        88
    13.7000        90
    13.7200        90
    13.7400        88
    13.7600        86
    13.7800        90
    13.8000        86
    13.8200        80
    13.8400        76
    13.8600        78
    13.8800        56
    13.9000        56
    13.9200        62
    13.9400        62
    13.9600        70
    13.9800        58
    14.0000        68
    14.0200        72
    14.0400        62
    14.0600        66
    14.0800        66
    14.1000        62
    14.1200        80
    14.1400        62
    14.1600        60
    14.1800        66
    14.2000        54
    14.2200        68
    14.2400        70
    14.2600        62
    14.2800        70
    14.3000        56
    14.3200        64
    14.3400        62
    14.3600        64
    14.3800        66
    14.4000        60
    14.4200        62
    14.4400        76
    14.4600        60
    14.4800        78
    14.5000        70
    14.5200        62
    14.5400        68
    14.5600        72
    14.5800        62
    14.6000        66
    14.6200        82
    14.6400        60
    14.6600        64
    14.6800        76
    14.7000        80
    14.7200        62
    14.7400        74
    14.7600        56
    14.7800        76
    14.8000        78
    14.8200        84
    14.8400        48
    14.8600        76
    14.8800        62
    14.9000        90
    14.9200        68
    14.9400       100
    14.9600       124
    14.9800       110
    15.0000       112
    15.0200        84
    15.0400        80
    15.0600        72
    15.0800        74
    15.1000        72
    15.1200        60
    15.1400        76
    15.1600        70
    15.1800        72
    15.2000        52
    15.2200        74
    15.2400        52
    15.2600        56
    15.2800        64
    15.3000        48
    15.3200        64
    15.3400        66
    15.3600        76
    15.3800        64
    15.4000        56
    15.4200        56
    15.4400        52
    15.4600        48
    15.4800        54
    15.5000        56
    15.5200        68
    15.5400        64
    15.5600        58
    15.5800        64
    15.6000        66
    15.6200        56
    15.6400        76
    15.6600        58
    15.6800        44
    15.7000        74
    15.7200        42
    15.7400        62
    15.7600        60
    15.7800        66
    15.8000        76
    15.8200        52
    15.8400        46
    15.8600        72
    15.8800        64
    15.9000        60
    15.9200        68
    15.9400        68
    15.9600        58
    15.9800        58
    16.0000        72
    16.0200        64
    16.0400        72
    16.0600        70
    16.0800        86
    16.1000        80
    16.1200        74
    16.1400        84
    16.1600        88
    16.1800       102
    16.2000       100
    16.2200       106
    16.2400       102
    16.2600        98
    16.2800       112
    16.3000        96
    16.3200       102
    16.3400        96
    16.3600       116
    16.3800       110
    16.4000       114
    16.4200       106
    16.4400       124
    16.4600       108
    16.4800        86
    16.5000       100
    16.5200        92
    16.5400       136
    16.5600       130
    16.5800       152
    16.6000       132
    16.6200       150
    16.6400       138
    16.6600       152
    16.6800       110
    16.7000        98
    16.7200        96
    16.7400        84
    16.7600        70
    16.7800        70
    16.8000        76
    16.8200        70
    16.8400        80
    16.8600        90
    16.8800        74
    16.9000        72
    16.9200        72
    16.9400        64
    16.9600        68
    16.9800        70
    17.0000        66
    17.0200        60
    17.0400        50
    17.0600        50
    17.0800        60
    17.1000        56
    17.1200        54
    17.1400        56
    17.1600        54
    17.1800        58
    17.2000        56
    17.2200        58
    17.2400        54
    17.2600        66
    17.2800        56
    17.3000        50
    17.3200        60
    17.3400        50
    17.3600        62
    17.3800        54
    17.4000        56
    17.4200        46
    17.4400        46
    17.4600        54
    17.4800        64
    17.5000        58
    17.5200        54
    17.5400        64
    17.5600        50
    17.5800        70
    17.6000        48
    17.6200        50
    17.6400        52
    17.6600        42
    17.6800        54
    17.7000        56
    17.7200        56
    17.7400        62
    17.7600        60
    17.7800        54
    17.8000        54
    17.8200        56
    17.8400        56
    17.8600        52
    17.8800        78
    17.9000        46
    17.9200        60
    17.9400        52
    17.9600        64
    17.9800        68
    18.0000        56
    18.0200        60
    18.0400        80
    18.0600        68
    18.0800        80
    18.1000        46
    18.1200        78
    18.1400        72
    18.1600        64
    18.1800        62
    18.2000        66
    18.2200        66
    18.2400        46
    18.2600        72
    18.2800        66
    18.3000        64
    18.3200        70
    18.3400        58
    18.3600        78
    18.3800        84
    18.4000        86
    18.4200       110
    18.4400       136
    18.4600       212
    18.4800       202
    18.5000       196
    18.5200       218
    18.5400       212
    18.5600       220
    18.5800       260
    18.6000       242
    18.6200       250
    18.6400       250
    18.6600       210
    18.6800       206
    18.7000       166
    18.7200       182
    18.7400       168
    18.7600       174
    18.7800       208
    18.8000       210
    18.8200       172
    18.8400       188
    18.8600       218
    18.8800       238
    18.9000       346
    18.9200       390
    18.9400       490
    18.9600       488
    18.9800       504
    19.0000       476
    19.0200       458
    19.0400       426
    19.0600       346
    19.0800       316
    19.1000       276
    19.1200       202
    19.1400       204
    19.1600       170
    19.1800       158
    19.2000       168
    19.2200       196
    19.2400       212
    19.2600       318
    19.2800       398
    19.3000       398
    19.3200       384
    19.3400       364
    19.3600       340
    19.3800       344
    19.4000       326
    19.4200       250
    19.4400       194
    19.4600       154
    19.4800       108
    19.5000        74
    19.5200        78
    19.5400        82
    19.5600        68
    19.5800        74
    19.6000        72
    19.6200        84
    19.6400       112
    19.6600       108
    19.6800        82
    19.7000        98
    19.7200        90
    19.7400       126
    19.7600       100
    19.7800       114
    19.8000       122
    19.8200       132
    19.8400       118
    19.8600        98
    19.8800       102
    19.9000       124
    19.9200       122
    19.9400       202
    19.9600       288
    19.9800       258
    20.0000       234
    20.0200       236
    20.0400       180
    20.0600       130
    20.0800       126
    20.1000       144
    20.1200       122
    20.1400       128
    20.1600       134
    20.1800       112
    20.2000       110
    20.2200        92
    20.2400        84
    20.2600        70
    20.2800        74
    20.3000        74
    20.3200        68
    20.3400        90
    20.3600        60
    20.3800        66
