Data from water-h2o-liq-X-mm-trans2_Reflection_02.txt Node
Date: Sun Aug 18 13:57:21 MDT 2019
User: rclark
Spectrometer: FLMS02693
Trigger mode: 0
Integration Time (sec): 2.000000E0
Scans to average: 10
Electric dark correction enabled: true
Nonlinearity correction enabled: false
Boxcar width: 0
XAxis mode: Wavelengths
Number of Pixels in Spectrum: 2048
>>>>>Begin Spectral Data<<<<<
189.497	271.43
189.881	271.43
190.265	271.43
190.649	-24.62
191.033	120.09
191.417	1420.55
191.801	224.3
192.185	239.63
192.568	-135.07
192.952	-13.48
193.336	27.91
193.72	796.69
194.103	-209.19
194.487	-47.34
194.87	141.62
195.254	118.51
195.637	-1463.03
196.021	109.51
196.404	123.62
196.788	-25.68
197.171	293.87
197.554	242.82
197.938	-55.14
198.321	19.83
198.704	22.05
199.087	21.15
199.47	23.19
199.853	22.66
200.237	24.26
200.62	24.16
201.003	23.91
201.386	26.51
201.768	25.02
202.151	24.17
202.534	26.59
202.917	23.95
203.3	27.43
203.683	27.6
204.065	24.61
204.448	26.09
204.831	28.49
205.213	27.42
205.596	25.3
205.978	28.4
206.361	28.89
206.743	28.58
207.126	28.11
207.508	28.86
207.89	29.09
208.273	29.88
208.655	29.15
209.037	29.06
209.419	30.02
209.802	30.36
210.184	30.5
210.566	28.79
210.948	30.5
211.33	30.36
211.712	29.86
212.094	32.33
212.476	31.46
212.858	31.93
213.24	31.23
213.621	32.29
214.003	31.77
214.385	32.24
214.767	32.61
215.148	32.52
215.53	32.92
215.911	33.71
216.293	33.15
216.675	33.68
217.056	34.03
217.437	33.44
217.819	33.66
218.2	34.25
218.582	33.7
218.963	34.26
219.344	35.07
219.725	34.81
220.107	34.61
220.488	35.56
220.869	34.77
221.25	35.53
221.631	34.88
222.012	35.93
222.393	36.05
222.774	35.92
223.155	35.79
223.536	36.08
223.917	36.19
224.297	35.67
224.678	35.92
225.059	36.31
225.44	36.49
225.82	36.64
226.201	36.62
226.581	36.9
226.962	36.61
227.342	37.02
227.723	37.11
228.103	36.83
228.484	36.89
228.864	37.62
229.244	37.11
229.625	37.84
230.005	37.1
230.385	37.43
230.765	38.24
231.146	38.01
231.526	37.96
231.906	37.51
232.286	38.07
232.666	37.74
233.046	38.19
233.426	38.06
233.806	37.72
234.185	38.42
234.565	38.54
234.945	38.3
235.325	38.4
235.704	38.83
236.084	38.26
236.464	38.65
236.843	38.39
237.223	38.46
237.602	38.49
237.982	38.51
238.361	38.42
238.741	38.52
239.12	38.64
239.499	38.95
239.879	39.07
240.258	38.35
240.637	38.93
241.016	38.92
241.396	39.2
241.775	38.95
242.154	39.23
242.533	38.88
242.912	38.79
243.291	38.25
243.67	38.87
244.049	39.03
244.427	38.9
244.806	39.53
245.185	39.26
245.564	39.66
245.942	39.31
246.321	38.75
246.7	39.44
247.078	39.64
247.457	39.18
247.835	38.9
248.214	39.56
248.592	39.83
248.971	39.47
249.349	39.57
249.728	39.6
250.106	39.19
250.484	39.58
250.862	39.72
251.241	39.7
251.619	39.55
251.997	40.03
252.375	39.72
252.753	39.65
253.131	39.67
253.509	39.83
253.887	40.05
254.265	39.89
254.643	39.98
255.02	40.1
255.398	39.87
255.776	39.98
256.154	40.34
256.531	39.8
256.909	40.2
257.287	40.16
257.664	40.05
258.042	39.96
258.419	40.34
258.797	40.34
259.174	39.94
259.551	40.35
259.929	40.17
260.306	40.29
260.683	40.32
261.06	40.2
261.438	39.96
261.815	40.1
262.192	40.58
262.569	40.02
262.946	40.12
263.323	39.91
263.7	40.56
264.077	40.43
264.454	40.52
264.831	40.45
265.207	40.4
265.584	40.35
265.961	40.8
266.338	40.49
266.714	40.54
267.091	40.67
267.467	40.66
267.844	40.88
268.22	40.59
268.597	40.61
268.973	40.42
269.35	40.99
269.726	41.01
270.102	40.9
270.479	40.78
270.855	40.97
271.231	41.09
271.607	40.87
271.984	41.09
272.36	41.15
272.736	41.15
273.112	41.1
273.488	41.64
273.864	41.13
274.24	41.37
274.615	41.32
274.991	41.22
275.367	41.51
275.743	41.28
276.118	41.39
276.494	41.42
276.87	40.98
277.245	41.39
277.621	41.4
277.996	41.45
278.372	41.58
278.747	41.69
279.123	41.91
279.498	41.45
279.874	41.76
280.249	41.96
280.624	42.02
280.999	41.85
281.375	42.41
281.75	41.81
282.125	42.1
282.5	42.08
282.875	41.83
283.25	42.21
283.625	42.3
284	42.38
284.375	42.22
284.749	42.45
285.124	42.04
285.499	42.73
285.874	42.41
286.248	42.15
286.623	42.58
286.998	42.41
287.372	42.69
287.747	43.09
288.121	43.03
288.496	42.63
288.87	42.97
289.245	43.17
289.619	42.68
289.993	42.4
290.368	42.86
290.742	42.83
291.116	43.6
291.49	42.96
291.864	43.05
292.238	43.01
292.612	42.95
292.986	43.23
293.36	42.71
293.734	42.77
294.108	43.24
294.482	42.9
294.856	43.47
295.23	43.42
295.603	43.63
295.977	43.33
296.351	43.39
296.724	43.83
297.098	43.52
297.471	43.33
297.845	43.57
298.218	43.86
298.592	43.44
298.965	43.24
299.338	43.53
299.712	43.31
300.085	43.26
300.458	43.49
300.831	44.13
301.205	43.89
301.578	43.6
301.951	44.08
302.324	43.87
302.697	43.75
303.07	44.1
303.443	43.71
303.816	44.16
304.189	44.21
304.561	43.81
304.934	43.9
305.307	43.93
305.68	44.14
306.052	43.85
306.425	44.22
306.797	43.94
307.17	44.23
307.542	43.97
307.915	44.71
308.287	43.83
308.66	44.02
309.032	44.42
309.404	44.49
309.777	44.32
310.149	44.58
310.521	44.01
310.893	44.62
311.265	44.39
311.637	43.99
312.009	44.6
312.381	44.52
312.753	44.46
313.125	44.68
313.497	44.38
313.869	44.69
314.241	44.28
314.612	44.56
314.984	44.55
315.356	45.12
315.728	44.57
316.099	44.71
316.471	45.11
316.842	44.91
317.214	44.92
317.585	45.14
317.957	45.16
318.328	44.75
318.699	44.94
319.071	45.12
319.442	44.67
319.813	45.21
320.184	44.98
320.555	45.14
320.926	44.81
321.297	45.15
321.668	45.13
322.039	45.29
322.41	45.47
322.781	45.56
323.152	45.04
323.523	45.33
323.894	45.57
324.264	45.73
324.635	45.49
325.006	45.63
325.376	45.75
325.747	45.75
326.118	45.89
326.488	45.68
326.859	45.49
327.229	45.21
327.599	44.89
327.97	45
328.34	44.95
328.71	44.9
329.081	44.93
329.451	45.58
329.821	46.56
330.191	45.61
330.561	45.69
330.931	45.96
331.301	45.76
331.671	45.93
332.041	45.64
332.411	45.54
332.781	45.66
333.151	45.81
333.52	45.89
333.89	45.91
334.26	46.07
334.629	45.76
334.999	45.88
335.368	45.61
335.738	45.78
336.107	45.93
336.477	46.22
336.846	45.97
337.216	46.05
337.585	46.2
337.954	46.29
338.324	46.26
338.693	45.9
339.062	46.03
339.431	45.74
339.8	45.54
340.169	45.9
340.538	46.15
340.907	46.44
341.276	45.65
341.645	45.84
342.014	46.06
342.383	46.04
342.751	46.24
343.12	46.11
343.489	45.61
343.857	46.17
344.226	46.43
344.595	46.34
344.963	46.07
345.332	46.04
345.7	46.29
346.068	46.38
346.437	46.11
346.805	46.53
347.173	46.35
347.542	46.69
347.91	46.12
348.278	46.48
348.646	46.53
349.014	45.99
349.382	46.41
349.75	46.69
350.118	46.39
350.486	46.6
350.854	46.55
351.222	46.37
351.59	46.79
351.957	46.44
352.325	46.67
352.693	47.02
353.061	46.77
353.428	46.82
353.796	46.59
354.163	46.66
354.531	46.38
354.898	46.59
355.266	46.5
355.633	46.92
356	46.11
356.368	46.26
356.735	46.27
357.102	45.97
357.469	46.24
357.836	46.19
358.203	46.65
358.57	46.31
358.937	46.4
359.304	46.56
359.671	46.51
360.038	46.56
360.405	46.36
360.772	46.67
361.139	46.31
361.505	46.38
361.872	46.15
362.239	46.33
362.605	46.34
362.972	45.9
363.338	46.56
363.705	46.2
364.071	46.4
364.438	46.44
364.804	46.37
365.17	46.54
365.537	46.22
365.903	46.65
366.269	46.52
366.635	46.4
367.001	46.49
367.367	46.22
367.733	46.43
368.099	46.43
368.465	46.55
368.831	45.89
369.197	46.57
369.563	46.18
369.929	46.79
370.295	46.68
370.66	46.35
371.026	46.25
371.392	46.59
371.757	46.31
372.123	46.82
372.488	46.52
372.854	46.68
373.219	46.67
373.584	46.85
373.95	46.55
374.315	47.11
374.68	46.65
375.046	46.6
375.411	46.49
375.776	46.12
376.141	46.74
376.506	46.49
376.871	46.6
377.236	46.45
377.601	46.26
377.966	46.57
378.331	46.64
378.695	46.52
379.06	46.73
379.425	46.81
379.79	47.24
380.154	46.77
380.519	46.81
380.884	46.65
381.248	46.84
381.613	46.79
381.977	46.13
382.341	46.99
382.706	46.3
383.07	46.5
383.434	46.59
383.799	46.74
384.163	46.89
384.527	46.74
384.891	47.07
385.255	46.65
385.619	46.48
385.983	47.14
386.347	47.05
386.711	46.64
387.075	47.07
387.439	47.03
387.802	46.7
388.166	47.28
388.53	47.14
388.894	46.49
389.257	47.28
389.621	46.73
389.984	46.87
390.348	46.9
390.711	46.63
391.075	46.71
391.438	46.67
391.801	46.55
392.165	46.79
392.528	46.83
392.891	47.02
393.254	47.04
393.617	46.8
393.981	46.56
394.344	46.87
394.707	46.62
395.07	46.98
395.432	47.11
395.795	47.29
396.158	47.09
396.521	47.55
396.884	46.95
397.246	47.35
397.609	47.17
397.972	47.16
398.334	47.17
398.697	47.49
399.059	47.34
399.422	47.43
399.784	46.99
400.147	47.74
400.509	47.42
400.871	47.3
401.234	47.58
401.596	47.11
401.958	46.94
402.32	47.25
402.682	46.98
403.044	46.62
403.406	46.61
403.768	46.63
404.13	47.31
404.492	47.63
404.854	47.01
405.216	46.9
405.577	47.48
405.939	47.34
406.301	47.01
406.662	46.77
407.024	47.38
407.386	47.3
407.747	47.03
408.108	47.55
408.47	47.06
408.831	47.2
409.193	47.47
409.554	47.74
409.915	47.32
410.276	47.58
410.638	47.3
410.999	47.2
411.36	47.56
411.721	47.98
412.082	47.05
412.443	47.29
412.804	47.05
413.165	46.95
413.525	46.82
413.886	46.71
414.247	46.9
414.608	46.27
414.968	47
415.329	47.13
415.69	47.09
416.05	47.14
416.411	46.8
416.771	47.75
417.131	46.97
417.492	47.53
417.852	47.37
418.212	47.01
418.573	46.98
418.933	47.32
419.293	46.97
419.653	47.08
420.013	47.38
420.373	47.11
420.733	47.29
421.093	47.56
421.453	47.08
421.813	47.15
422.173	47.47
422.533	46.89
422.892	47.22
423.252	47.01
423.612	46.91
423.971	46.87
424.331	46.92
424.691	47.03
425.05	47.05
425.409	47.17
425.769	47.63
426.128	47.81
426.488	47.04
426.847	46.93
427.206	47.05
427.565	47
427.924	46.94
428.283	47.12
428.643	47.19
429.002	46.99
429.361	46.84
429.72	46.68
430.078	47.21
430.437	47.06
430.796	47.54
431.155	47.06
431.514	47.3
431.872	46.53
432.231	47.43
432.589	47.19
432.948	47.23
433.307	47.59
433.665	47.17
434.023	46.64
434.382	46.88
434.74	47.03
435.098	47.18
435.457	47.11
435.815	46.73
436.173	47.04
436.531	46.77
436.889	46.91
437.247	46.93
437.605	46.83
437.963	46.95
438.321	46.87
438.679	47.48
439.037	47.15
439.395	47.08
439.753	47.12
440.11	46.71
440.468	47.43
440.826	47.29
441.183	47.4
441.541	46.99
441.898	47.69
442.256	46.98
442.613	46.93
442.97	47.56
443.328	46.86
443.685	47.16
444.042	47.71
444.399	47.26
444.756	47.24
445.114	47.78
445.471	46.81
445.828	47.69
446.185	47.88
446.542	47.58
446.898	47.14
447.255	47.38
447.612	47.79
447.969	47.24
448.326	47.15
448.682	46.77
449.039	47.02
449.395	47.08
449.752	46.77
450.109	47.02
450.465	46.82
450.821	46.77
451.178	47.21
451.534	47.07
451.89	47.56
452.247	46.91
452.603	46.51
452.959	47.02
453.315	46.75
453.671	47.12
454.027	46.82
454.383	47.19
454.739	46.86
455.095	46.87
455.451	47.07
455.807	46.77
456.162	46.87
456.518	46.47
456.874	46.81
457.23	46.87
457.585	46.87
457.941	47.44
458.296	46.81
458.652	46.35
459.007	46.57
459.362	47.36
459.718	46.45
460.073	46.71
460.428	46.58
460.784	46.86
461.139	46.53
461.494	46.22
461.849	47.19
462.204	46.9
462.559	46.95
462.914	46.75
463.269	46.75
463.624	46.71
463.978	46.81
464.333	46.73
464.688	47.29
465.043	47.18
465.397	47.19
465.752	47.04
466.106	47.01
466.461	46.91
466.815	46.59
467.17	46.79
467.524	46.51
467.879	46.34
468.233	46.13
468.587	46.22
468.941	46.03
469.295	46.12
469.65	46.38
470.004	46.23
470.358	47.23
470.712	46.37
471.066	46.51
471.419	46.09
471.773	46.37
472.127	46.25
472.481	46.64
472.835	46.21
473.188	46
473.542	45.74
473.896	46.38
474.249	46.48
474.603	45.62
474.956	45.92
475.309	45.74
475.663	46.14
476.016	46.17
476.369	46.16
476.723	45.83
477.076	45.92
477.429	45.75
477.782	47.92
478.135	49.12
478.488	48.51
478.841	44.5
479.194	43.31
479.547	43.35
479.9	43.58
480.253	44.18
480.605	44.68
480.958	45.34
481.311	45.38
481.664	45.61
482.016	45.44
482.369	45.66
482.721	45.23
483.074	45.86
483.426	45.89
483.778	45.81
484.131	45.75
484.483	45.89
484.835	45.46
485.187	45.86
485.54	45.29
485.892	45.59
486.244	45.76
486.596	45.66
486.948	45.27
487.3	45.63
487.651	45.53
488.003	45.64
488.355	45.79
488.707	45.2
489.059	45.76
489.41	45.43
489.762	45.14
490.113	45.44
490.465	45.23
490.816	45.62
491.168	45.57
491.519	46.14
491.871	45.64
492.222	45.72
492.573	44.96
492.924	45.24
493.275	45.84
493.627	45.43
493.978	45.11
494.329	45.32
494.68	45.22
495.031	44.92
495.382	45.18
495.732	45.24
496.083	45.13
496.434	45.04
496.785	44.71
497.135	44.92
497.486	44.84
497.837	44.25
498.187	45.08
498.538	45.25
498.888	44.91
499.239	45.12
499.589	44.52
499.939	44.91
500.289	44.74
500.64	45.09
500.99	44.98
501.34	44.4
501.69	44.65
502.04	44.34
502.39	44.98
502.74	44.51
503.09	44.57
503.44	44.61
503.79	44.32
504.14	44.69
504.489	44.39
504.839	44.71
505.189	44.15
505.538	44.15
505.888	44.45
506.237	44.32
506.587	44.42
506.936	44.11
507.286	44.29
507.635	44.18
507.984	44.46
508.334	44.58
508.683	44.41
509.032	44.29
509.381	43.83
509.73	43.81
510.079	43.65
510.428	43.61
510.777	44.56
511.126	43.85
511.475	43.99
511.824	44.07
512.172	43.86
512.521	43.69
512.87	44.14
513.218	43.53
513.567	44.05
513.915	44.06
514.264	43.94
514.612	43.65
514.961	43.6
515.309	43.61
515.657	43.51
516.006	43.7
516.354	43.53
516.702	44.12
517.05	43.24
517.398	43.31
517.746	43.05
518.094	43.06
518.442	43.1
518.79	43.21
519.138	43.36
519.486	43.31
519.834	43.22
520.181	42.6
520.529	43.19
520.877	43.48
521.224	43.36
521.572	43.48
521.919	42.83
522.267	43.05
522.614	43.45
522.961	43.06
523.309	42.71
523.656	42.99
524.003	43.17
524.35	42.61
524.698	43.12
525.045	43.02
525.392	43.39
525.739	43
526.086	43.11
526.432	43.53
526.779	42.95
527.126	43.14
527.473	43.22
527.82	43.04
528.166	42.84
528.513	42.41
528.86	42.47
529.206	42.37
529.553	42.72
529.899	42.76
530.245	43.09
530.592	43.08
530.938	43.51
531.284	43.07
531.631	42.89
531.977	43.33
532.323	43.03
532.669	43.01
533.015	43.16
533.361	43.07
533.707	42.78
534.053	42.83
534.399	42.92
534.745	42.94
535.09	43.41
535.436	42.55
535.782	42.6
536.127	43.02
536.473	42.89
536.818	43.15
537.164	43
537.509	42.62
537.855	42.65
538.2	42.52
538.545	42.19
538.891	41.95
539.236	42.43
539.581	42.95
539.926	43.06
540.271	43.33
540.616	43.26
540.961	42.3
541.306	41.9
541.651	42.25
541.996	41.87
542.341	42.63
542.685	42.45
543.03	42.44
543.375	41.71
543.719	42.11
544.064	42.54
544.409	42.68
544.753	42.61
545.097	42
545.442	42.01
545.786	42.13
546.131	42.24
546.475	41.76
546.819	41.74
547.163	41.86
547.507	42.21
547.851	42.41
548.195	42.74
548.539	42.12
548.883	41.86
549.227	41.69
549.571	41.82
549.915	41.71
550.258	41.91
550.602	41.19
550.946	41.51
551.289	41.94
551.633	41.14
551.976	41.88
552.32	41.93
552.663	42.24
553.007	42.37
553.35	42.02
553.693	41.89
554.037	41.7
554.38	41.79
554.723	41.66
555.066	41.64
555.409	41.71
555.752	42.06
556.095	41.57
556.438	42.06
556.781	42.31
557.124	41.96
557.466	41.86
557.809	41.93
558.152	41.28
558.494	41.65
558.837	41.76
559.18	42.36
559.522	43.06
559.864	42.82
560.207	42.98
560.549	42.82
560.892	42.89
561.234	43.51
561.576	43.44
561.918	43.96
562.26	43.48
562.602	43.49
562.944	43.35
563.286	43.35
563.628	43.9
563.97	43.46
564.312	43.37
564.654	42.95
564.996	42.6
565.337	43.4
565.679	44.17
566.02	44.31
566.362	44.46
566.704	44.42
567.045	44.32
567.386	43.92
567.728	42.83
568.069	42.91
568.41	43.1
568.752	44.15
569.093	44.19
569.434	44.93
569.775	46.4
570.116	47.76
570.457	47.36
570.798	45.02
571.139	43.3
571.48	42.8
571.821	43.05
572.161	43.58
572.502	43.74
572.843	43.87
573.183	45.56
573.524	48.05
573.865	51.38
574.205	52.37
574.545	49.44
574.886	46.92
575.226	44.16
575.566	42.42
575.907	42.09
576.247	42.35
576.587	42.93
576.927	43.9
577.267	44.71
577.607	45.34
577.947	44.64
578.287	43.6
578.627	42.81
578.967	43.08
579.307	43.86
579.646	44.02
579.986	43.84
580.326	43.19
580.665	42.61
581.005	42.65
581.344	41.94
581.684	41.84
582.023	42.42
582.362	42.37
582.702	42.35
583.041	42.05
583.38	41.84
583.719	41.96
584.059	42.23
584.398	42.57
584.737	43.65
585.076	44.11
585.415	43.8
585.753	43.6
586.092	43.11
586.431	42.09
586.77	41.95
587.108	42.15
587.447	42.31
587.786	42.36
588.124	42.13
588.463	41.86
588.801	41.5
589.14	41.94
589.478	42.38
589.816	42.45
590.155	42.27
590.493	42.44
590.831	43.33
591.169	43.6
591.507	43.32
591.845	42.72
592.183	42.87
592.521	42.65
592.859	42.75
593.197	42.34
593.535	42.39
593.872	42.25
594.21	42.13
594.548	42.07
594.885	42.39
595.223	42.58
595.56	43.11
595.898	42.83
596.235	42.47
596.573	41.98
596.91	41.84
597.247	41.75
597.584	42.14
597.921	42.61
598.259	42.76
598.596	42.11
598.933	41.67
599.27	41.93
599.607	42.02
599.943	41.99
600.28	41.68
600.617	41.47
600.954	41.72
601.291	41.68
601.627	41.51
601.964	42.15
602.3	42.36
602.637	42.23
602.973	41.48
603.31	41.56
603.646	41.5
603.982	41.49
604.319	41.13
604.655	41.61
604.991	41.23
605.327	41.51
605.663	41.19
605.999	41.6
606.335	41.71
606.671	41.35
607.007	41.81
607.343	41.77
607.679	41.75
608.014	41.81
608.35	41.45
608.686	41.4
609.021	40.93
609.357	41.28
609.692	41.57
610.028	41.52
610.363	41.52
610.698	41.23
611.034	40.32
611.369	40.61
611.704	40.56
612.039	41.07
612.374	41.08
612.71	40.92
613.045	39.97
613.379	40.07
613.714	39.81
614.049	40.55
614.384	40.45
614.719	40.86
615.054	40.77
615.388	40.92
615.723	41.05
616.057	40.98
616.392	40.93
616.726	40.69
617.061	40.64
617.395	40.45
617.73	39.82
618.064	39.95
618.398	39.57
618.732	40.07
619.066	39.99
619.401	39.85
619.735	39.82
620.069	39.74
620.403	39.36
620.736	39.19
621.07	39.26
621.404	38.96
621.738	39.54
622.072	39.6
622.405	39.29
622.739	39.47
623.072	38.88
623.406	38.52
623.739	38.51
624.073	38.62
624.406	38.53
624.739	38.27
625.073	38.18
625.406	38.17
625.739	38.18
626.072	38.03
626.405	38.54
626.738	38.03
627.071	38.25
627.404	37.93
627.737	38.05
628.07	37.95
628.403	38.03
628.735	38.6
629.068	38.86
629.401	38.8
629.733	37.56
630.066	38.07
630.398	37.79
630.731	38.41
631.063	38.42
631.396	38.37
631.728	37.99
632.06	37.41
632.392	37.35
632.724	37.35
633.057	37.58
633.389	37.21
633.721	37.14
634.053	37.23
634.384	37.64
634.716	38.06
635.048	36.83
635.38	37.07
635.712	37.41
636.043	37.79
636.375	36.9
636.706	37.4
637.038	37.15
637.369	37.14
637.701	37.18
638.032	36.61
638.363	36.62
638.695	36.7
639.026	37.12
639.357	36.58
639.688	36.58
640.019	36.45
640.35	37.56
640.681	37.43
641.012	38.02
641.343	38.07
641.674	37.98
642.005	37.24
642.335	37.27
642.666	37.08
642.997	37.1
643.327	35.99
643.658	36.46
643.988	37.37
644.319	37.49
644.649	36.99
644.979	37.29
645.31	37.37
645.64	37.03
645.97	37.28
646.3	36.92
646.63	37.3
646.96	37.7
647.29	39.32
647.62	48.02
647.95	95.91
648.28	100.04
648.61	100.04
648.94	100.04
649.269	98.6
649.599	72.22
649.929	53.02
650.258	36.74
650.588	37.27
650.917	37.21
651.246	37.4
651.576	36.65
651.905	36.28
652.234	36.41
652.564	35.52
652.893	35.8
653.222	36.34
653.551	35.59
653.88	36.15
654.209	35.8
654.538	35.53
654.867	36.18
655.195	35.94
655.524	36.29
655.853	35.7
656.181	36.16
656.51	35.72
656.839	35.68
657.167	36.54
657.496	36.2
657.824	35.96
658.152	36.2
658.481	36.09
658.809	35.54
659.137	35.69
659.465	35.56
659.793	35.72
660.121	35.76
660.449	35.47
660.777	35.74
661.105	35.82
661.433	35.9
661.761	35.34
662.089	36.12
662.416	35.56
